#Title,Digilent WaveForms Spectrum Analyzer Data
#Device Name,Analog Discovery
#Serial Number,SN:210244693068
#Software Version,2.7.5
Frequency (Hz),Trace 1 (dB)
0,-21.9283916501554
24.4140625,-27.9592163857214
48.828125,-78.3854233581056
73.2421875,-79.3613225428316
97.65625,-73.7328855949124
122.0703125,-67.9560755962211
146.484375,-74.6080860889463
170.8984375,-86.7944092591775
195.3125,-80.0272341055954
219.7265625,-77.5301686837962
244.140625,-75.0464510638225
268.5546875,-78.6413719581635
292.96875,-91.391873048511
317.3828125,-78.4362853727257
341.796875,-76.4073054484806
366.2109375,-80.1927311817439
390.625,-81.3399419188524
415.0390625,-76.1319381639252
439.453125,-81.6553545209656
463.8671875,-75.4598470981662
488.28125,-79.8899384078795
512.6953125,-84.7822770640853
537.109375,-76.260813024259
561.5234375,-77.3228750682578
585.9375,-95.2130691653061
610.3515625,-84.8889279672628
634.765625,-89.7093457513969
659.1796875,-83.9159611852204
683.59375,-80.4679014730684
708.0078125,-79.4504120977152
732.421875,-77.354376426153
756.8359375,-91.601665162287
781.25,-79.6951388471106
805.6640625,-82.7763229981092
830.078125,-90.4694216865989
854.4921875,-87.8499494214926
878.90625,-94.9594151942816
903.3203125,-83.1772933426383
927.734375,-78.4983630079149
952.1484375,-81.228733175969
976.5625,-80.5192027537132
1000.9765625,-82.7567803205436
1025.390625,-87.5082117424139
1049.8046875,-89.6117287027178
1074.21875,-81.6050045710121
1098.6328125,-77.0083566689685
1123.046875,-78.71440359079
1147.4609375,-88.9540415951414
1171.875,-84.8924066686341
1196.2890625,-84.5209728523068
1220.703125,-90.4406282100628
1245.1171875,-78.3830992512082
1269.53125,-76.9833386388075
1293.9453125,-82.2359654147774
1318.359375,-103.312476190545
1342.7734375,-79.9370346233565
1367.1875,-78.5176682787103
1391.6015625,-97.0779898337542
1416.015625,-85.7794594636001
1440.4296875,-85.9162050245602
1464.84375,-76.3149118052201
1489.2578125,-77.3429878924463
1513.671875,-90.8223477059114
1538.0859375,-84.9173873364668
1562.5,-78.4713450270731
1586.9140625,-79.7697606231968
1611.328125,-76.8956010271064
1635.7421875,-72.6703561336022
1660.15625,-74.8288380909173
1684.5703125,-88.4303325913049
1708.984375,-79.378874200661
1733.3984375,-78.7883781841012
1757.8125,-79.7769047658156
1782.2265625,-85.6454256663585
1806.640625,-93.7942916291035
1831.0546875,-85.2160155495622
1855.46875,-94.184550026953
1879.8828125,-81.7001497442413
1904.296875,-77.1863719028528
1928.7109375,-84.3357349612434
1953.125,-87.0015617704624
1977.5390625,-85.40526954598
2001.953125,-85.1852653105476
2026.3671875,-81.5503493276502
2050.78125,-79.2333606598876
2075.1953125,-85.8421784474273
2099.609375,-82.17928036083
2124.0234375,-73.440896170958
2148.4375,-73.6350430653028
2172.8515625,-80.5088054517218
2197.265625,-84.9992267089796
2221.6796875,-88.1532244695838
2246.09375,-95.1932417614476
2270.5078125,-82.975926231747
2294.921875,-84.2034206088786
2319.3359375,-82.8678289711935
2343.75,-80.6347732106273
2368.1640625,-94.0298787613025
2392.578125,-76.4251712504429
2416.9921875,-76.4121957093249
2441.40625,-87.0468995078719
2465.8203125,-86.1230892234699
2490.234375,-81.7648044824539
2514.6484375,-71.0952356667471
2539.0625,-69.0205509309184
2563.4765625,-79.1113419632555
2587.890625,-76.4585414399363
2612.3046875,-73.3563602433791
2636.71875,-75.7186589085818
2661.1328125,-80.0818412997606
2685.546875,-91.3986805556455
2709.9609375,-81.9808314699854
2734.375,-83.9296150043606
2758.7890625,-83.9394936811477
2783.203125,-80.9358506253406
2807.6171875,-77.3703530226906
2832.03125,-81.662601764333
2856.4453125,-81.7570030101774
2880.859375,-77.0343763111794
2905.2734375,-76.187997236591
2929.6875,-80.8401956678336
2954.1015625,-79.2150865790647
2978.515625,-77.6773728924459
3002.9296875,-86.3824094518744
3027.34375,-78.626240832009
3051.7578125,-81.5728155481379
3076.171875,-85.8216149537152
3100.5859375,-80.8053578822073
3125,-84.0918102290095
3149.4140625,-78.5762215913902
3173.828125,-77.285681840924
3198.2421875,-68.9827945440403
3222.65625,-64.2516401724208
3247.0703125,-69.0258395001039
3271.484375,-78.5685174286455
3295.8984375,-81.526698003123
3320.3125,-87.8883287529206
3344.7265625,-78.6098024055613
3369.140625,-83.3811592636075
3393.5546875,-83.0713935733564
3417.96875,-77.7311296275333
3442.3828125,-80.2165264669935
3466.796875,-80.5906002183073
3491.2109375,-78.3133826088074
3515.625,-79.5832844183331
3540.0390625,-82.8816409391101
3564.453125,-74.123148817558
3588.8671875,-72.3410220088317
3613.28125,-87.4769482166734
3637.6953125,-78.1991069918184
3662.109375,-74.2477922110994
3686.5234375,-79.450588940493
3710.9375,-89.8342100863337
3735.3515625,-90.2885191744026
3759.765625,-80.2589743216637
3784.1796875,-76.30891193784
3808.59375,-79.4868091913633
3833.0078125,-82.2280350818905
3857.421875,-81.9801337507273
3881.8359375,-91.3827339974134
3906.25,-81.3557420937599
3930.6640625,-77.2097791966748
3955.078125,-77.8190532081838
3979.4921875,-81.6439890032416
4003.90625,-86.4911133962819
4028.3203125,-87.9256349991215
4052.734375,-89.0068107422082
4077.1484375,-78.4622246132485
4101.5625,-75.3871228053142
4125.9765625,-83.9780079937852
4150.390625,-78.8402672335955
4174.8046875,-82.1692355629544
4199.21875,-77.7099407186968
4223.6328125,-76.0578667825006
4248.046875,-75.1859998517535
4272.4609375,-72.5843876255796
4296.875,-69.9554795285492
4321.2890625,-74.5672732323097
4345.703125,-89.7252148510509
4370.1171875,-81.9585147886685
4394.53125,-77.4691455642239
4418.9453125,-74.8265187971625
4443.359375,-74.6606328730813
4467.7734375,-76.1824787934276
4492.1875,-77.2662266244697
4516.6015625,-75.0176337292221
4541.015625,-74.1940210922963
4565.4296875,-75.5057167760728
4589.84375,-85.1775909779715
4614.2578125,-86.905096966758
4638.671875,-101.050571312969
4663.0859375,-84.8489418766134
4687.5,-80.2062915273839
4711.9140625,-79.0700377425998
4736.328125,-76.5110804212178
4760.7421875,-75.3056751507977
4785.15625,-74.1911671843598
4809.5703125,-73.8329280383341
4833.984375,-77.2703264931403
4858.3984375,-75.4338331964672
4882.8125,-76.531283598144
4907.2265625,-78.4976016047425
4931.640625,-81.4349007106806
4956.0546875,-77.7052591294674
4980.46875,-79.2598298251519
5004.8828125,-76.3118665734277
5029.296875,-77.1944039420631
5053.7109375,-76.2862614029042
5078.125,-74.543560376558
5102.5390625,-77.8851901217085
5126.953125,-88.0179524655468
5151.3671875,-86.6312897472104
5175.78125,-79.2996640231098
5200.1953125,-78.5067137920109
5224.609375,-93.2209904240431
5249.0234375,-96.0667607971641
5273.4375,-76.7406962650508
5297.8515625,-73.6650189211448
5322.265625,-77.7247813049478
5346.6796875,-76.9800674081422
5371.09375,-83.1681576155685
5395.5078125,-76.4506477869084
5419.921875,-75.0757553199527
5444.3359375,-85.4535979664516
5468.75,-85.5212916258081
5493.1640625,-81.0481610331201
5517.578125,-73.115877511035
5541.9921875,-79.795388285694
5566.40625,-76.380547545248
5590.8203125,-75.3692030840627
5615.234375,-73.4614492653291
5639.6484375,-80.5634587617404
5664.0625,-76.2193642767248
5688.4765625,-76.2490980473928
5712.890625,-76.2281711017614
5737.3046875,-77.8930627160991
5761.71875,-76.1427942849099
5786.1328125,-75.7118022368769
5810.546875,-87.1701818094939
5834.9609375,-82.9143150147572
5859.375,-76.3032055828586
5883.7890625,-73.0426739148013
5908.203125,-74.6558117482916
5932.6171875,-83.0067993897634
5957.03125,-79.5590905668581
5981.4453125,-80.7201775777511
6005.859375,-88.1512175292824
6030.2734375,-81.1537126805587
6054.6875,-83.8340406404629
6079.1015625,-85.4315619490851
6103.515625,-87.4384349076184
6127.9296875,-91.8295119833313
6152.34375,-79.5895040536664
6176.7578125,-76.3461403197616
6201.171875,-77.5727785683783
6225.5859375,-82.5183056904482
6250,-80.3316487613922
6274.4140625,-81.4779006179745
6298.828125,-81.8254488286249
6323.2421875,-79.6937739315717
6347.65625,-84.0244642513474
6372.0703125,-83.8238599525081
6396.484375,-92.2473966417187
6420.8984375,-75.2850252672706
6445.3125,-77.8389417435302
6469.7265625,-82.0766024830734
6494.140625,-83.5304091892916
6518.5546875,-82.495187606697
6542.96875,-78.2394939557829
6567.3828125,-87.3189239192793
6591.796875,-78.1366206870009
6616.2109375,-86.0280357608003
6640.625,-77.8123668766747
6665.0390625,-89.5034974397707
6689.453125,-83.1758705382109
6713.8671875,-81.2943227631857
6738.28125,-81.7172447013012
6762.6953125,-80.89868159048
6787.109375,-77.7052393086011
6811.5234375,-76.2330706162389
6835.9375,-87.692851212792
6860.3515625,-75.3186543222567
6884.765625,-75.1308821389554
6909.1796875,-76.9653975096118
6933.59375,-81.6593940160264
6958.0078125,-75.2734881151383
6982.421875,-76.8361958387529
7006.8359375,-85.1335856629328
7031.25,-90.5754938531354
7055.6640625,-84.00498983157
7080.078125,-76.8332407750591
7104.4921875,-74.7202172256657
7128.90625,-89.2595332150505
7153.3203125,-75.6826450750834
7177.734375,-70.863789298069
7202.1484375,-70.3662352561287
7226.5625,-76.0055612857094
7250.9765625,-82.7690206198699
7275.390625,-79.132652418613
7299.8046875,-80.7543188367961
7324.21875,-79.1473128506069
7348.6328125,-79.6730773976152
7373.046875,-82.7478738686875
7397.4609375,-88.4508259313016
7421.875,-75.1648300053096
7446.2890625,-76.1886526130364
7470.703125,-77.8045617609654
7495.1171875,-75.5129539350586
7519.53125,-75.6096257095304
7543.9453125,-80.1032274275484
7568.359375,-79.6981121738699
7592.7734375,-75.923803034707
7617.1875,-74.1681622555736
7641.6015625,-75.2985868886371
7666.015625,-82.7888593945867
7690.4296875,-73.6835815471099
7714.84375,-72.2955032811345
7739.2578125,-84.9116223927209
7763.671875,-92.9947399250742
7788.0859375,-78.3637184462027
7812.5,-76.6227359671438
7836.9140625,-76.3360556166425
7861.328125,-75.19954404167
7885.7421875,-77.151188956915
7910.15625,-72.1033730075542
7934.5703125,-76.5228129465605
7958.984375,-79.4647276049484
7983.3984375,-74.6956493149595
8007.8125,-73.163878828785
8032.2265625,-77.2117040931469
8056.640625,-76.3391894257718
8081.0546875,-81.3330015433282
8105.46875,-87.8726274048027
8129.8828125,-87.719089532339
8154.296875,-88.218237661338
8178.7109375,-81.5494432278618
8203.125,-84.9719164834268
8227.5390625,-73.1946039437253
8251.953125,-71.050198698014
8276.3671875,-74.5313762157726
8300.78125,-75.6794330281497
8325.1953125,-80.9154135687592
8349.609375,-85.4306128944593
8374.0234375,-78.0338631876438
8398.4375,-79.0015069196175
8422.8515625,-92.1190516119242
8447.265625,-74.8983980187711
8471.6796875,-73.0764070780236
8496.09375,-75.873710872838
8520.5078125,-80.032814324389
8544.921875,-73.7040274610917
8569.3359375,-75.3914439211857
8593.75,-75.0910697789628
8618.1640625,-96.6449880473969
8642.578125,-75.9328045139804
8666.9921875,-82.2205093085641
8691.40625,-93.3239456864959
8715.8203125,-79.0028894109781
8740.234375,-74.7836252022787
8764.6484375,-79.7138940044114
8789.0625,-79.9526985097783
8813.4765625,-80.5330239633598
8837.890625,-79.8608151845266
8862.3046875,-79.8404097908872
8886.71875,-76.7409460653013
8911.1328125,-79.8007136414134
8935.546875,-75.3483345961639
8959.9609375,-74.0795653752274
8984.375,-78.3705251852205
9008.7890625,-91.6071657526512
9033.203125,-88.4626717895206
9057.6171875,-77.0335677949434
9082.03125,-74.9806590107112
9106.4453125,-73.7625363092682
9130.859375,-78.9954458518617
9155.2734375,-84.9784037907568
9179.6875,-70.6684366185264
9204.1015625,-73.5552299522702
9228.515625,-82.6553924759572
9252.9296875,-74.7139598697355
9277.34375,-70.3264746453452
9301.7578125,-75.4005883837316
9326.171875,-72.9841959858989
9350.5859375,-70.9792169794226
9375,-79.8818664796464
9399.4140625,-82.9714174644028
9423.828125,-72.8556346054932
9448.2421875,-72.6516971515389
9472.65625,-73.7242314561157
9497.0703125,-74.8213615330591
9521.484375,-89.4668521667958
9545.8984375,-74.782081218365
9570.3125,-74.0399940345305
9594.7265625,-73.0532269134966
9619.140625,-73.1438745694625
9643.5546875,-76.633517692684
9667.96875,-74.0688712184576
9692.3828125,-80.8528201526075
9716.796875,-73.8239705751418
9741.2109375,-73.7812564775705
9765.625,-74.102011802547
9790.0390625,-81.3947188409482
9814.453125,-81.4337282158326
9838.8671875,-74.197212632563
9863.28125,-72.5168065083352
9887.6953125,-74.8273614386329
9912.109375,-81.3094310844714
9936.5234375,-79.1379881158122
9960.9375,-80.9420929418726
9985.3515625,-82.4868822506002
10009.765625,-73.9140144916089
10034.1796875,-77.5652828431701
10058.59375,-76.0385028899698
10083.0078125,-68.9325777729974
10107.421875,-76.3127707363707
10131.8359375,-75.1341339817001
10156.25,-87.0561352770103
10180.6640625,-79.6050958814064
10205.078125,-71.1014347418149
10229.4921875,-68.9111098652421
10253.90625,-71.8450719488035
10278.3203125,-80.0839101354861
10302.734375,-72.0208920494487
10327.1484375,-70.5840382422673
10351.5625,-72.4695566747843
10375.9765625,-73.0212468536009
10400.390625,-75.1419758286575
10424.8046875,-83.1215547073095
10449.21875,-79.0866595678449
10473.6328125,-69.2378376500945
10498.046875,-69.35024394141
10522.4609375,-80.4752772939198
10546.875,-85.7121129733134
10571.2890625,-88.001003120825
10595.703125,-83.0702386874578
10620.1171875,-73.5105252603167
10644.53125,-72.5227033946319
10668.9453125,-86.1523232159122
10693.359375,-75.3162169913491
10717.7734375,-76.6441894000957
10742.1875,-70.3039396797725
10766.6015625,-75.2664347633338
10791.015625,-78.39568120459
10815.4296875,-80.468436167834
10839.84375,-77.9708687055148
10864.2578125,-76.773064958028
10888.671875,-75.7403654361731
10913.0859375,-77.2769990437387
10937.5,-74.1564953351804
10961.9140625,-67.4553219130215
10986.328125,-69.7437800879894
11010.7421875,-85.3891855532193
11035.15625,-78.5331522397628
11059.5703125,-74.882023392901
11083.984375,-70.8710056941317
11108.3984375,-76.9283828325106
11132.8125,-80.9607005124017
11157.2265625,-80.005479829904
11181.640625,-73.0661574205544
11206.0546875,-73.0347774505452
11230.46875,-77.7260343723901
11254.8828125,-71.1729792242897
11279.296875,-69.0559455986401
11303.7109375,-72.5519564892129
11328.125,-77.2269800960133
11352.5390625,-79.7431347512333
11376.953125,-88.6185483982741
11401.3671875,-78.1846751672707
11425.78125,-77.8158259490269
11450.1953125,-79.504797553173
11474.609375,-75.9376728377445
11499.0234375,-72.1052249329358
11523.4375,-77.4345600214754
11547.8515625,-83.7024911587121
11572.265625,-70.7257831096525
11596.6796875,-71.1802161434944
11621.09375,-78.0371580642715
11645.5078125,-83.6186509502821
11669.921875,-74.1234500275083
11694.3359375,-76.801052161559
11718.75,-77.5924265576661
11743.1640625,-71.2470354067054
11767.578125,-71.4941825667586
11791.9921875,-79.005486617198
11816.40625,-74.6498873197107
11840.8203125,-77.4422542468101
11865.234375,-74.9786976461123
11889.6484375,-76.103923644622
11914.0625,-70.2796157023621
11938.4765625,-74.8851736996276
11962.890625,-76.7125059071177
11987.3046875,-74.1897617220023
12011.71875,-78.2207364466046
12036.1328125,-81.6671595585125
12060.546875,-73.5185643181607
12084.9609375,-72.1264234767974
12109.375,-74.3127963434862
12133.7890625,-73.2437369052724
12158.203125,-78.3807708122694
12182.6171875,-74.8025560575065
12207.03125,-74.0961706117736
12231.4453125,-73.0182745273366
12255.859375,-74.2218902733459
12280.2734375,-80.2110007082701
12304.6875,-76.0143932825481
12329.1015625,-72.6331330242809
12353.515625,-86.8485354213674
12377.9296875,-72.6969864794733
12402.34375,-74.7658508827984
12426.7578125,-77.2871113717317
12451.171875,-76.0037766301986
12475.5859375,-76.3397655581912
12500,-88.7683957809133
12524.4140625,-78.0255650836118
12548.828125,-82.9625378918347
12573.2421875,-72.8705899626294
12597.65625,-70.5542656401028
12622.0703125,-79.1813166987434
12646.484375,-77.854390784589
12670.8984375,-81.2555110516917
12695.3125,-75.3533981046947
12719.7265625,-86.1921571691095
12744.140625,-80.1411443055873
12768.5546875,-72.588652041074
12792.96875,-76.0620660416792
12817.3828125,-83.341039191412
12841.796875,-81.0151505081782
12866.2109375,-78.8850980782042
12890.625,-90.0321936148666
12915.0390625,-80.6511326243565
12939.453125,-68.3151695911015
12963.8671875,-67.7376205518536
12988.28125,-69.9624395179003
13012.6953125,-73.5900670661634
13037.109375,-84.0703428665041
13061.5234375,-79.081067774037
13085.9375,-76.7504439405649
13110.3515625,-76.5130817546909
13134.765625,-74.9609953056447
13159.1796875,-69.9872086572272
13183.59375,-73.1889389762111
13208.0078125,-69.0650638023184
13232.421875,-64.6275199697594
13256.8359375,-63.5392251160783
13281.25,-67.8625073943586
13305.6640625,-78.0174458906438
13330.078125,-82.4116006679284
13354.4921875,-77.0294819349451
13378.90625,-76.211031237616
13403.3203125,-73.7681426651667
13427.734375,-86.721029402528
13452.1484375,-71.3281092146472
13476.5625,-72.1447969879947
13500.9765625,-80.716328347048
13525.390625,-81.2197619114916
13549.8046875,-74.9263202545407
13574.21875,-73.3651260366213
13598.6328125,-72.3666809481619
13623.046875,-78.279660344658
13647.4609375,-72.935266061973
13671.875,-72.2626965047743
13696.2890625,-73.6435113972495
13720.703125,-79.0922962843956
13745.1171875,-76.2705193196662
13769.53125,-75.2396884952931
13793.9453125,-77.1773012608394
13818.359375,-86.4219010265088
13842.7734375,-85.0370159480001
13867.1875,-92.757685362931
13891.6015625,-79.9164593667966
13916.015625,-83.7466434273759
13940.4296875,-80.6622438348937
13964.84375,-78.5269739094765
13989.2578125,-75.9174551198641
14013.671875,-72.5300469385965
14038.0859375,-70.9324264228768
14062.5,-69.2948734259736
14086.9140625,-73.7933827665283
14111.328125,-77.6010709653554
14135.7421875,-82.8113418058286
14160.15625,-92.678750840076
14184.5703125,-74.7483527290669
14208.984375,-65.7097762323174
14233.3984375,-63.7884160936012
14257.8125,-70.7177779538751
14282.2265625,-80.1391188626888
14306.640625,-74.2177907029363
14331.0546875,-82.4342142186171
14355.46875,-70.6083949232451
14379.8828125,-69.3797776468633
14404.296875,-68.5122884709741
14428.7109375,-70.225470107811
14453.125,-73.6410170308198
14477.5390625,-71.9652366732313
14501.953125,-68.7752679457704
14526.3671875,-72.2527068682328
14550.78125,-71.9504808441186
14575.1953125,-86.9152807568619
14599.609375,-73.3617726636311
14624.0234375,-67.2345533440699
14648.4375,-69.8734534533184
14672.8515625,-95.0463987797276
14697.265625,-71.1263508471212
14721.6796875,-68.8054708945467
14746.09375,-81.7633548611093
14770.5078125,-66.6507280845259
14794.921875,-67.8589621532306
14819.3359375,-82.1364355962449
14843.75,-78.1123486844015
14868.1640625,-72.5091782647257
14892.578125,-69.4598431751539
14916.9921875,-77.4376924614149
14941.40625,-69.4242753658055
14965.8203125,-67.0137451209105
14990.234375,-66.5373677313859
15014.6484375,-68.3229394661153
15039.0625,-75.6520805753621
15063.4765625,-76.3697064460501
15087.890625,-80.0014377030818
15112.3046875,-73.9352952031028
15136.71875,-78.9820258362399
15161.1328125,-87.2177155772464
15185.546875,-79.7978804780883
15209.9609375,-70.4782713442496
15234.375,-74.9269922850232
15258.7890625,-80.0474945950701
15283.203125,-78.9809223747331
15307.6171875,-78.2153077351122
15332.03125,-74.9423080326774
15356.4453125,-73.9184957542622
15380.859375,-73.0398178659287
15405.2734375,-75.1328011036318
15429.6875,-72.2996438531507
15454.1015625,-95.233541167109
15478.515625,-77.4856083085628
15502.9296875,-79.1469248766653
15527.34375,-69.2975084930771
15551.7578125,-76.1760657638385
15576.171875,-71.6445993536393
15600.5859375,-73.1738677193117
15625,-72.5059376247857
15649.4140625,-66.8100387049001
15673.828125,-65.5918859034128
15698.2421875,-68.9437419599889
15722.65625,-75.2147307875074
15747.0703125,-73.6816767757412
15771.484375,-69.8145176246186
15795.8984375,-68.1142705644107
15820.3125,-75.9838045874854
15844.7265625,-68.0229529949931
15869.140625,-69.4763246256589
15893.5546875,-83.7626410962948
15917.96875,-90.6286066400295
15942.3828125,-77.6221528668332
15966.796875,-86.4358994961283
15991.2109375,-76.904736759986
16015.625,-71.4530155619255
16040.0390625,-69.3059801283464
16064.453125,-72.0780212404439
16088.8671875,-74.0224031998361
16113.28125,-73.5427926957949
16137.6953125,-68.1323082889821
16162.109375,-69.6907880011662
16186.5234375,-74.2090587072228
16210.9375,-76.5405806271105
16235.3515625,-73.1532638840634
16259.765625,-70.0677102240836
16284.1796875,-68.9401495368569
16308.59375,-67.9855030866893
16333.0078125,-78.259298014877
16357.421875,-76.7805880449865
16381.8359375,-79.4472734885424
16406.25,-75.5783998300477
16430.6640625,-76.6494031916658
16455.078125,-81.6312175819409
16479.4921875,-74.1006200219685
16503.90625,-70.0231200098084
16528.3203125,-72.0939767536762
16552.734375,-76.9285243041267
16577.1484375,-77.1940721036073
16601.5625,-71.8383115687455
16625.9765625,-74.6952972082881
16650.390625,-74.5800509128466
16674.8046875,-75.220135145384
16699.21875,-84.2961291028733
16723.6328125,-69.226372233587
16748.046875,-71.9579512687912
16772.4609375,-79.5869223008009
16796.875,-73.5461387908487
16821.2890625,-72.1446605788836
16845.703125,-72.0830099403917
16870.1171875,-79.7337416983001
16894.53125,-67.8834275103615
16918.9453125,-70.4282167734903
16943.359375,-67.2437584693844
16967.7734375,-68.7863871725545
16992.1875,-70.782775539386
17016.6015625,-70.1531684247202
17041.015625,-72.4521089393495
17065.4296875,-81.0477097795003
17089.84375,-84.5211356685133
17114.2578125,-72.5983453674432
17138.671875,-68.0016317715212
17163.0859375,-68.0950246798216
17187.5,-70.9957565198223
17211.9140625,-80.8766626437606
17236.328125,-74.6771668786742
17260.7421875,-75.1607913750495
17285.15625,-76.3469824538885
17309.5703125,-76.8798160634096
17333.984375,-73.8398121007419
17358.3984375,-70.9902568388311
17382.8125,-71.4655744400989
17407.2265625,-71.9310431939865
17431.640625,-74.1889058115434
17456.0546875,-74.0040560824679
17480.46875,-71.203868664696
17504.8828125,-74.6188139289375
17529.296875,-73.1995184975992
17553.7109375,-81.0802596377981
17578.125,-66.1723075320021
17602.5390625,-70.143812359177
17626.953125,-86.635063338506
17651.3671875,-70.3306993941871
17675.78125,-70.4778737055719
17700.1953125,-74.432932561662
17724.609375,-77.4308960438207
17749.0234375,-71.3671291233065
17773.4375,-71.0282630965384
17797.8515625,-70.6867957291101
17822.265625,-66.3026189503048
17846.6796875,-69.0362276332655
17871.09375,-69.1093899782654
17895.5078125,-71.930079666215
17919.921875,-70.0673019834551
17944.3359375,-69.4181557563137
17968.75,-75.2706925257468
17993.1640625,-70.9007414263813
18017.578125,-72.9560795027035
18041.9921875,-73.1565016772531
18066.40625,-73.0453877800517
18090.8203125,-78.1033143355165
18115.234375,-68.896614354508
18139.6484375,-65.8631908661601
18164.0625,-71.2116985640291
18188.4765625,-75.8452315446872
18212.890625,-75.4960561049017
18237.3046875,-81.7156605894133
18261.71875,-80.4215859315074
18286.1328125,-71.6078755853924
18310.546875,-71.2686601104482
18334.9609375,-66.7694921891315
18359.375,-69.9911312746566
18383.7890625,-76.6648286242911
18408.203125,-69.0471514955826
18432.6171875,-69.9487667613697
18457.03125,-73.0404161809224
18481.4453125,-67.4445700358477
18505.859375,-66.1067013306849
18530.2734375,-67.9313913987257
18554.6875,-66.9086445779171
18579.1015625,-69.7947933807578
18603.515625,-77.7296974842497
18627.9296875,-69.8168494134391
18652.34375,-70.9880720941707
18676.7578125,-69.239021874181
18701.171875,-72.3194664681675
18725.5859375,-73.2409749802262
18750,-70.0754542137831
18774.4140625,-67.4863747833495
18798.828125,-68.1291723325976
18823.2421875,-73.4416938895006
18847.65625,-76.118081343795
18872.0703125,-73.2014013114591
18896.484375,-74.2261656294367
18920.8984375,-96.5190461323563
18945.3125,-74.3395025885881
18969.7265625,-74.2451259487185
18994.140625,-81.5815711028986
19018.5546875,-72.9266579749905
19042.96875,-75.1805506854807
19067.3828125,-73.0507781767468
19091.796875,-69.3899836610409
19116.2109375,-70.1937331971607
19140.625,-74.4922921108684
19165.0390625,-70.0962811389328
19189.453125,-65.0706417351364
19213.8671875,-68.3507010702843
19238.28125,-66.9451959013437
19262.6953125,-67.4858475287614
19287.109375,-75.1398232925329
19311.5234375,-75.6923944032071
19335.9375,-72.7852771355113
19360.3515625,-71.9580257385991
19384.765625,-77.46003532254
19409.1796875,-68.43783019573
19433.59375,-77.5545023804152
19458.0078125,-69.5270491245415
19482.421875,-76.0965784331922
19506.8359375,-66.5917491681985
19531.25,-67.8458480285608
19555.6640625,-65.6248850547478
19580.078125,-68.5238914066376
19604.4921875,-74.6668460981851
19628.90625,-68.9735897272649
19653.3203125,-67.1474698023929
19677.734375,-77.8098677397038
19702.1484375,-74.3130940031361
19726.5625,-81.1674963495608
19750.9765625,-78.7960619094476
19775.390625,-75.4804760250117
19799.8046875,-71.8061839383959
19824.21875,-66.6366191790031
19848.6328125,-72.6400431239707
19873.046875,-70.0493061605215
19897.4609375,-71.4332117647999
19921.875,-72.0827650847386
19946.2890625,-72.7394328336595
19970.703125,-75.3742159221385
19995.1171875,-67.7677229252009
20019.53125,-66.9450906149151
20043.9453125,-72.1387208512388
20068.359375,-77.7197148555677
20092.7734375,-77.2488520574552
20117.1875,-96.2348206704638
20141.6015625,-77.308131441777
20166.015625,-72.6512073506766
20190.4296875,-71.597760628581
20214.84375,-80.8086737365969
20239.2578125,-69.2813555634603
20263.671875,-68.9983351408187
20288.0859375,-69.5118832232292
20312.5,-68.4009767285086
20336.9140625,-67.9004855958297
20361.328125,-67.7598320956972
20385.7421875,-69.1474597514723
20410.15625,-94.3379408766037
20434.5703125,-84.3853760914868
20458.984375,-75.2896216179646
20483.3984375,-67.1834647884288
20507.8125,-66.1545059830195
20532.2265625,-67.4989687627658
20556.640625,-64.4850966421096
20581.0546875,-67.5502395642648
20605.46875,-64.7402671191088
20629.8828125,-63.0668235061368
20654.296875,-65.0714157635756
20678.7109375,-65.8732141017074
20703.125,-64.9871768085603
20727.5390625,-67.1544655801123
20751.953125,-67.8444782320108
20776.3671875,-67.5279138077093
20800.78125,-70.7361606817167
20825.1953125,-73.1870822687713
20849.609375,-74.365754150613
20874.0234375,-79.0286909904742
20898.4375,-77.6169478871994
20922.8515625,-64.6748350837685
20947.265625,-65.0029747679145
20971.6796875,-72.3715014618612
20996.09375,-66.8113849411515
21020.5078125,-66.9148177012115
21044.921875,-81.5034490361469
21069.3359375,-66.0662766032639
21093.75,-64.1668179571998
21118.1640625,-69.9894596187166
21142.578125,-74.0291977859076
21166.9921875,-67.0100021089176
21191.40625,-66.5957183032858
21215.8203125,-68.9115682442505
21240.234375,-67.0734328815582
21264.6484375,-61.8083988033956
21289.0625,-60.616635053361
21313.4765625,-62.2174280037712
21337.890625,-64.2249361660293
21362.3046875,-68.9586566932775
21386.71875,-71.0089809006898
21411.1328125,-68.5792305517319
21435.546875,-74.8071292363976
21459.9609375,-76.0724933625626
21484.375,-68.8666017934814
21508.7890625,-62.9366138020425
21533.203125,-63.5612574965861
21557.6171875,-64.5760567910213
21582.03125,-65.8668575984422
21606.4453125,-71.0582414906652
21630.859375,-75.5127399092637
21655.2734375,-66.6663953905073
21679.6875,-68.2515597671719
21704.1015625,-71.6046919881031
21728.515625,-73.4578881233745
21752.9296875,-77.5359948431373
21777.34375,-82.3871514773418
21801.7578125,-83.6386694613331
21826.171875,-71.9701803807884
21850.5859375,-73.3860748879624
21875,-69.598741249897
21899.4140625,-73.2726759637517
21923.828125,-69.1043636975657
21948.2421875,-72.1857368453602
21972.65625,-65.7035480671291
21997.0703125,-66.2895630492452
22021.484375,-82.2091802100986
22045.8984375,-70.7781704616214
22070.3125,-72.042783623406
22094.7265625,-78.0655560909176
22119.140625,-66.1561952162418
22143.5546875,-69.2379097698348
22167.96875,-66.7647448132699
22192.3828125,-63.8403685342782
22216.796875,-68.47270712145
22241.2109375,-78.7833173347974
22265.625,-71.7987330296866
22290.0390625,-67.1624346007929
22314.453125,-69.5509285530553
22338.8671875,-70.3719660051838
22363.28125,-82.2458171416275
22387.6953125,-89.6477027624404
22412.109375,-66.5255759066281
22436.5234375,-61.8906083603438
22460.9375,-66.3014857889601
22485.3515625,-69.3737573319534
22509.765625,-77.5772067003851
22534.1796875,-72.8733380336335
22558.59375,-66.7959191482149
22583.0078125,-69.2665790293197
22607.421875,-77.1751911656229
22631.8359375,-77.2476475041187
22656.25,-74.5955253607799
22680.6640625,-66.3707972952938
22705.078125,-63.6058921728298
22729.4921875,-64.5993060597668
22753.90625,-75.1982734840477
22778.3203125,-72.1669076348715
22802.734375,-75.0286678815444
22827.1484375,-75.769096322841
22851.5625,-75.7414515364229
22875.9765625,-79.590683726188
22900.390625,-74.9899218861179
22924.8046875,-77.3564430910047
22949.21875,-71.4025163365312
22973.6328125,-72.6609306763029
22998.046875,-78.2255823180991
23022.4609375,-76.1486438838284
23046.875,-70.1664573560124
23071.2890625,-70.4451780819209
23095.703125,-64.7354204901506
23120.1171875,-64.0420897370203
23144.53125,-73.3097138997232
23168.9453125,-64.7847882178106
23193.359375,-64.9600391346065
23217.7734375,-67.2429705185865
23242.1875,-71.070316662545
23266.6015625,-75.8869980895133
23291.015625,-63.3071618251897
23315.4296875,-64.2785377223206
23339.84375,-69.7301111293014
23364.2578125,-77.2285554355178
23388.671875,-67.3684337338944
23413.0859375,-68.2603008243496
23437.5,-73.2595308414597
23461.9140625,-74.0433613671364
23486.328125,-67.1196221610365
23510.7421875,-63.4959950498185
23535.15625,-74.5124580714388
23559.5703125,-66.1261928526507
23583.984375,-65.7253946773451
23608.3984375,-65.7554682399222
23632.8125,-69.1669937315638
23657.2265625,-72.8258526345098
23681.640625,-69.9654087640531
23706.0546875,-68.0118643299964
23730.46875,-66.4537904285256
23754.8828125,-71.509611567057
23779.296875,-69.370258980726
23803.7109375,-66.103358602214
23828.125,-80.4810121295927
23852.5390625,-71.3685391758083
23876.953125,-68.8531518869911
23901.3671875,-69.7912419766629
23925.78125,-71.2813276930126
23950.1953125,-81.0821634197727
23974.609375,-71.7602862313943
23999.0234375,-64.6427463299691
24023.4375,-65.5258898365929
24047.8515625,-71.6234642113883
24072.265625,-68.7711212345238
24096.6796875,-67.8358809524587
24121.09375,-75.9521265508814
24145.5078125,-76.4799835966147
24169.921875,-69.2109157132362
24194.3359375,-68.289106394553
24218.75,-65.4807354677428
24243.1640625,-63.6607200064469
24267.578125,-70.3205758297064
24291.9921875,-74.2567591028017
24316.40625,-69.5371661955295
24340.8203125,-63.4198720417372
24365.234375,-61.9413896555679
24389.6484375,-67.8129832205382
24414.0625,-83.1860056336167
24438.4765625,-74.871139020056
24462.890625,-71.4629135115934
24487.3046875,-71.5141723827037
24511.71875,-72.163768910415
24536.1328125,-71.8922956408693
24560.546875,-70.2703305077026
24584.9609375,-74.4953235267995
24609.375,-72.1362020623533
24633.7890625,-67.489864846855
24658.203125,-68.0180354863417
24682.6171875,-75.9491341096263
24707.03125,-66.0831692761466
24731.4453125,-65.2171686121133
24755.859375,-72.5130870187258
24780.2734375,-66.7495635633569
24804.6875,-64.3682725662619
24829.1015625,-67.8251500458537
24853.515625,-70.1247752673609
24877.9296875,-73.586765773817
24902.34375,-74.004964104096
24926.7578125,-66.7817313869564
24951.171875,-61.8975919734088
24975.5859375,-66.0865023645242
25000,-71.5181820767636
25024.4140625,-69.3402521166583
25048.828125,-67.5023907264478
25073.2421875,-68.8705235331491
25097.65625,-74.9317515334075
25122.0703125,-70.9689193774828
25146.484375,-66.6997374700215
25170.8984375,-73.2236837331818
25195.3125,-78.824920870132
25219.7265625,-68.9540859012905
25244.140625,-63.9335843886313
25268.5546875,-69.6600042291524
25292.96875,-67.9855736190656
25317.3828125,-72.1226531833614
25341.796875,-66.53733665652
25366.2109375,-68.3959662799395
25390.625,-72.615740900007
25415.0390625,-82.8757700446542
25439.453125,-71.2898294107642
25463.8671875,-68.405763282624
25488.28125,-73.9554040552299
25512.6953125,-70.324595162243
25537.109375,-66.1941365334777
25561.5234375,-66.9683468899549
25585.9375,-66.5473542346892
25610.3515625,-71.359829902622
25634.765625,-85.4263069021733
25659.1796875,-74.9965501017099
25683.59375,-67.1757658462224
25708.0078125,-66.5458667595165
25732.421875,-72.4189018689177
25756.8359375,-69.853334772414
25781.25,-80.974174353212
25805.6640625,-64.1832089557113
25830.078125,-61.5552585496033
25854.4921875,-66.8737975563072
25878.90625,-65.0879713369158
25903.3203125,-64.084345358315
25927.734375,-70.6623612253856
25952.1484375,-74.932974361615
25976.5625,-62.94424227739
26000.9765625,-63.5872383396946
26025.390625,-69.648711929326
26049.8046875,-66.4796229336975
26074.21875,-63.015673023618
26098.6328125,-74.2077434524854
26123.046875,-74.2399710411088
26147.4609375,-68.0202401022968
26171.875,-64.4961792529413
26196.2890625,-66.5854608710084
26220.703125,-91.6131520460166
26245.1171875,-72.3655477475379
26269.53125,-67.5542041164468
26293.9453125,-73.1422465584988
26318.359375,-79.4552867572219
26342.7734375,-70.5356230670567
26367.1875,-65.2876281228394
26391.6015625,-64.9028828125333
26416.015625,-66.4181207432262
26440.4296875,-71.3070818627706
26464.84375,-77.2453108191678
26489.2578125,-76.5328807546576
26513.671875,-78.4746644311716
26538.0859375,-74.0659608907297
26562.5,-70.0155218159349
26586.9140625,-81.2924308851969
26611.328125,-68.5313380797671
26635.7421875,-66.5049890722634
26660.15625,-64.5042206712143
26684.5703125,-66.7390172026754
26708.984375,-66.621343376455
26733.3984375,-66.8515609897425
26757.8125,-77.0710714274987
26782.2265625,-71.8326674217105
26806.640625,-72.9454562656877
26831.0546875,-67.1461195172122
26855.46875,-65.4020383268545
26879.8828125,-63.8449917140787
26904.296875,-61.3034229041816
26928.7109375,-63.1862436624583
26953.125,-70.7525947445485
26977.5390625,-65.7070885910628
27001.953125,-61.4169182434859
27026.3671875,-62.1570902755203
27050.78125,-62.9502419417729
27075.1953125,-66.0827444710394
27099.609375,-78.4347398695219
27124.0234375,-72.8702565113995
27148.4375,-66.1071709523248
27172.8515625,-63.2017383264854
27197.265625,-68.8259803971948
27221.6796875,-69.0181618596325
27246.09375,-62.9359977951175
27270.5078125,-72.6992683144811
27294.921875,-68.8149823870934
27319.3359375,-67.7478317730017
27343.75,-70.8363784156785
27368.1640625,-86.4431401937742
27392.578125,-67.9309311257723
27416.9921875,-66.300829851873
27441.40625,-77.6210175512179
27465.8203125,-71.1248244497479
27490.234375,-66.0987149954891
27514.6484375,-77.9124824888693
27539.0625,-71.9704926046186
27563.4765625,-69.8024418433441
27587.890625,-67.2740291337237
27612.3046875,-65.2678462269474
27636.71875,-69.0373080636121
27661.1328125,-77.3666543960765
27685.546875,-69.0382972002055
27709.9609375,-66.7164279391323
27734.375,-66.3194936341571
27758.7890625,-73.4749930219675
27783.203125,-66.637957696004
27807.6171875,-77.4916018609844
27832.03125,-65.8390331295663
27856.4453125,-75.2226972968996
27880.859375,-69.9831610105802
27905.2734375,-73.0399365978997
27929.6875,-69.9417751223852
27954.1015625,-74.3940959665896
27978.515625,-72.279113563734
28002.9296875,-70.0439875735298
28027.34375,-66.235611644628
28051.7578125,-64.840586036775
28076.171875,-65.0308881274631
28100.5859375,-64.6407528281874
28125,-66.1376548878528
28149.4140625,-60.6211398098945
28173.828125,-57.2255927995443
28198.2421875,-58.1885266375156
28222.65625,-63.8457841267449
28247.0703125,-80.7036129500372
28271.484375,-74.2219573238315
28295.8984375,-66.7132799910414
28320.3125,-70.5125523947341
28344.7265625,-72.7333341591999
28369.140625,-68.3784201108779
28393.5546875,-71.4067100397697
28417.96875,-69.8656230117182
28442.3828125,-71.1094535648692
28466.796875,-69.6255112124393
28491.2109375,-65.1110751660113
28515.625,-73.6024609738571
28540.0390625,-72.673163833381
28564.453125,-69.6102066281267
28588.8671875,-69.9227367467428
28613.28125,-74.2131528809477
28637.6953125,-85.1933591635417
28662.109375,-78.8705312137277
28686.5234375,-63.85512560932
28710.9375,-60.9238751768825
28735.3515625,-66.5627538100456
28759.765625,-87.9149934395863
28784.1796875,-70.9538463170082
28808.59375,-69.5550663577376
28833.0078125,-69.6193700343937
28857.421875,-73.0631993713236
28881.8359375,-67.3616360859708
28906.25,-65.4323096572047
28930.6640625,-66.0737230648593
28955.078125,-75.1273122041992
28979.4921875,-74.7455894232593
29003.90625,-74.116958834407
29028.3203125,-70.3493360494675
29052.734375,-70.2441302658377
29077.1484375,-66.4649107497161
29101.5625,-62.5384380420908
29125.9765625,-67.2031229577463
29150.390625,-67.3927702285602
29174.8046875,-67.8449112511601
29199.21875,-72.7777488335412
29223.6328125,-67.3373500766013
29248.046875,-71.9110385241537
29272.4609375,-73.1327651891491
29296.875,-68.550787661402
29321.2890625,-61.6937754774044
29345.703125,-64.3928856009772
29370.1171875,-75.131614427427
29394.53125,-67.9522960191996
29418.9453125,-66.8482319274234
29443.359375,-94.0375872422854
29467.7734375,-68.4480522386759
29492.1875,-68.9996772258135
29516.6015625,-85.8726158426671
29541.015625,-73.2489745681298
29565.4296875,-72.0470758775959
29589.84375,-68.9332690336597
29614.2578125,-71.4075790404039
29638.671875,-97.4471433283717
29663.0859375,-73.0548577725232
29687.5,-69.5949769067157
29711.9140625,-78.5310585199447
29736.328125,-67.3862869503697
29760.7421875,-71.7746356455542
29785.15625,-79.5554756752656
29809.5703125,-68.3489340016249
29833.984375,-65.7405896601599
29858.3984375,-67.1564154934419
29882.8125,-67.4246793086454
29907.2265625,-69.4827968038382
29931.640625,-66.5594667570303
29956.0546875,-73.5357044483669
29980.46875,-70.9874533422347
30004.8828125,-68.693283095949
30029.296875,-66.8189386742969
30053.7109375,-68.116875543309
30078.125,-72.4982330458989
30102.5390625,-74.9239207840945
30126.953125,-69.9099813660219
30151.3671875,-64.6563092167808
30175.78125,-66.8156327281929
30200.1953125,-68.2926462314417
30224.609375,-71.382382140436
30249.0234375,-84.9164384085962
30273.4375,-68.3185862200203
30297.8515625,-62.6457460153946
30322.265625,-64.0540593992224
30346.6796875,-63.9138244695691
30371.09375,-66.2871138122645
30395.5078125,-78.6302471755788
30419.921875,-66.9629795555039
30444.3359375,-63.6062906445677
30468.75,-75.5202599765591
30493.1640625,-67.5801406622479
30517.578125,-69.2406600344293
30541.9921875,-83.907033475139
30566.40625,-79.2805823196178
30590.8203125,-70.7919697229963
30615.234375,-64.2183012892366
30639.6484375,-63.7227580355272
30664.0625,-69.3423635052437
30688.4765625,-72.4602194851363
30712.890625,-74.5100286116965
30737.3046875,-93.51199292628
30761.71875,-68.8324251888131
30786.1328125,-61.1016860347616
30810.546875,-64.2639440737231
30834.9609375,-87.2369953045878
30859.375,-64.7629847120883
30883.7890625,-69.3236120808633
30908.203125,-69.5165385657975
30932.6171875,-67.0614538970546
30957.03125,-69.8853240790316
30981.4453125,-71.1247757910013
31005.859375,-67.6302998294522
31030.2734375,-67.7478769981892
31054.6875,-58.7547751486911
31079.1015625,-58.0127857976806
31103.515625,-60.9847207146676
31127.9296875,-67.474693600711
31152.34375,-76.1425305719682
31176.7578125,-71.8289281283531
31201.171875,-70.6109086516542
31225.5859375,-72.9605176538913
31250,-79.8639089989881
31274.4140625,-76.4152533645982
31298.828125,-71.0986446056228
31323.2421875,-69.2844045661039
31347.65625,-66.2231960205606
31372.0703125,-66.3329018201437
31396.484375,-69.5600740145823
31420.8984375,-69.1234788745312
31445.3125,-70.9297715692402
31469.7265625,-71.0906795051918
31494.140625,-73.2387946825482
31518.5546875,-67.1173241282638
31542.96875,-65.5799609378113
31567.3828125,-82.7479057836037
31591.796875,-63.0537072982217
31616.2109375,-62.5745845907203
31640.625,-66.2406975223592
31665.0390625,-63.5590203717604
31689.453125,-62.3110060892747
31713.8671875,-61.6268588884789
31738.28125,-61.9594374220076
31762.6953125,-64.4316854847248
31787.109375,-72.0901505803549
31811.5234375,-70.5324068659037
31835.9375,-68.9981389614977
31860.3515625,-70.7632066202483
31884.765625,-77.6529536580956
31909.1796875,-66.1368586002459
31933.59375,-66.5950202798082
31958.0078125,-68.7241742675729
31982.421875,-67.4436519166443
32006.8359375,-70.261753321587
32031.25,-61.7462289015842
32055.6640625,-62.8203182036735
32080.078125,-70.3434407111504
32104.4921875,-66.6868835257046
32128.90625,-69.3818150338646
32153.3203125,-80.9333012774069
32177.734375,-67.1222840616664
32202.1484375,-69.6172100742663
32226.5625,-72.9189647723029
32250.9765625,-66.5713694787331
32275.390625,-65.9372244255802
32299.8046875,-72.6738071784532
32324.21875,-63.5005357535871
32348.6328125,-69.6134160378052
32373.046875,-75.8335093503182
32397.4609375,-64.1876057533202
32421.875,-65.8187519880512
32446.2890625,-72.5904497831555
32470.703125,-63.131259209756
32495.1171875,-69.220512845641
32519.53125,-72.9733095749412
32543.9453125,-67.7248468946274
32568.359375,-62.8777520416138
32592.7734375,-60.0080639526079
32617.1875,-64.055262905691
32641.6015625,-66.633039384355
32666.015625,-62.7042175360384
32690.4296875,-65.0676910944155
32714.84375,-72.6192701650706
32739.2578125,-53.6401887605809
32763.671875,-43.9285238903781
32788.0859375,-47.246538630619
32812.5,-67.0847111908863
32836.9140625,-63.4573878248752
32861.328125,-64.7591627530159
32885.7421875,-64.4602648241988
32910.15625,-64.7687405769677
32934.5703125,-66.6743898495584
32958.984375,-74.4145113152443
32983.3984375,-61.1887817802827
33007.8125,-61.7916366187051
33032.2265625,-64.8904365228576
33056.640625,-63.6176961921912
33081.0546875,-64.199961438338
33105.46875,-66.301736610234
33129.8828125,-72.9490982192864
33154.296875,-68.862972338806
33178.7109375,-66.9805011712612
33203.125,-72.7919105701039
33227.5390625,-69.7702158239214
33251.953125,-74.4067111798264
33276.3671875,-66.940839072264
33300.78125,-62.0120744927802
33325.1953125,-64.0941536178538
33349.609375,-61.9724829789558
33374.0234375,-63.8457035554108
33398.4375,-63.6495545262068
33422.8515625,-62.6190603187977
33447.265625,-72.5621303709063
33471.6796875,-64.9037254631386
33496.09375,-60.2688092946247
33520.5078125,-60.6973852006501
33544.921875,-65.1296125656289
33569.3359375,-68.5795782274392
33593.75,-65.8742446566482
33618.1640625,-68.8040402242372
33642.578125,-71.0553719674652
33666.9921875,-79.5257762971337
33691.40625,-68.4765394642712
33715.8203125,-60.0833364951953
33740.234375,-61.9250790429988
33764.6484375,-70.1303607136221
33789.0625,-62.1638035955968
33813.4765625,-65.4065562431559
33837.890625,-63.4596174598961
33862.3046875,-60.746411576158
33886.71875,-65.9419498244697
33911.1328125,-66.8932039424217
33935.546875,-78.3306804022837
33959.9609375,-64.880261512558
33984.375,-65.5729837005694
34008.7890625,-70.752669831353
34033.203125,-73.5903742984544
34057.6171875,-68.9739569514053
34082.03125,-79.7559357925303
34106.4453125,-67.3486713890334
34130.859375,-66.7787644545081
34155.2734375,-78.0149217154912
34179.6875,-65.3210644805412
34204.1015625,-63.1572359916546
34228.515625,-63.1706186842148
34252.9296875,-66.7912619374256
34277.34375,-70.5062799268129
34301.7578125,-65.9487436268321
34326.171875,-61.5114045013586
34350.5859375,-61.3558937784822
34375,-66.9814380559419
34399.4140625,-68.0972108437881
34423.828125,-59.9814546679484
34448.2421875,-62.2386281783373
34472.65625,-66.9361078973641
34497.0703125,-76.9340293931976
34521.484375,-68.0817818442241
34545.8984375,-66.1715667808486
34570.3125,-63.3550380400625
34594.7265625,-69.5076838082695
34619.140625,-69.1382559180587
34643.5546875,-67.6508492538298
34667.96875,-67.6409215619746
34692.3828125,-60.3566614847278
34716.796875,-59.8550715317038
34741.2109375,-64.7865736678868
34765.625,-68.3643573090502
34790.0390625,-66.8057004503422
34814.453125,-60.8422905668844
34838.8671875,-73.243782913085
34863.28125,-67.0746714847611
34887.6953125,-66.3417344286616
34912.109375,-63.6626892181502
34936.5234375,-69.9004644368761
34960.9375,-67.924462114269
34985.3515625,-74.1220350851313
35009.765625,-69.5435291175882
35034.1796875,-64.8490718438242
35058.59375,-66.744822358194
35083.0078125,-76.0291582125913
35107.421875,-73.3788232353229
35131.8359375,-67.9433654394614
35156.25,-67.8427628685553
35180.6640625,-73.5517020619656
35205.078125,-72.0865757513592
35229.4921875,-74.5840452404944
35253.90625,-83.9692618923249
35278.3203125,-78.7877670522863
35302.734375,-65.9878091912008
35327.1484375,-66.0267449168555
35351.5625,-65.9387010665707
35375.9765625,-83.7150603595026
35400.390625,-62.8176986765595
35424.8046875,-63.1413419379184
35449.21875,-72.3434762993354
35473.6328125,-75.1294881192208
35498.046875,-69.6195440803798
35522.4609375,-62.8529325683537
35546.875,-60.1705914497599
35571.2890625,-66.3701701126543
35595.703125,-76.1497994640918
35620.1171875,-72.8635845200541
35644.53125,-68.531575558742
35668.9453125,-65.8077611104372
35693.359375,-67.6017972467819
35717.7734375,-77.9493840291046
35742.1875,-62.6483791349941
35766.6015625,-61.6263358055761
35791.015625,-69.3958910818871
35815.4296875,-78.4496135120937
35839.84375,-70.0573499835587
35864.2578125,-65.6906545150873
35888.671875,-74.0999221126009
35913.0859375,-73.695443633604
35937.5,-88.872224162005
35961.9140625,-71.1498084275513
35986.328125,-67.755003383632
36010.7421875,-64.9582452022744
36035.15625,-62.4575974289263
36059.5703125,-77.7946623584207
36083.984375,-65.0960323896817
36108.3984375,-64.4434300082147
36132.8125,-60.6912462416924
36157.2265625,-71.4891129013371
36181.640625,-74.5677844005725
36206.0546875,-67.1185844951229
36230.46875,-69.8496055467566
36254.8828125,-64.8116026571721
36279.296875,-61.12185391614
36303.7109375,-69.0662891271648
36328.125,-69.5438067484621
36352.5390625,-70.1617804509095
36376.953125,-76.0416945226467
36401.3671875,-85.6281516914545
36425.78125,-63.2439253235176
36450.1953125,-62.3711819980639
36474.609375,-75.527655624421
36499.0234375,-69.976171969944
36523.4375,-71.3712357959647
36547.8515625,-68.1502082098659
36572.265625,-66.1174962213386
36596.6796875,-95.2284801326729
36621.09375,-67.6064530171596
36645.5078125,-63.2587467134721
36669.921875,-65.6347788644265
36694.3359375,-70.5647515565277
36718.75,-69.8259670482362
36743.1640625,-91.8087108931123
36767.578125,-77.3523785010557
36791.9921875,-69.1905294285176
36816.40625,-66.3851428600755
36840.8203125,-67.3770260036316
36865.234375,-74.0726425470831
36889.6484375,-70.3093834835466
36914.0625,-69.8162318476602
36938.4765625,-66.0488456769374
36962.890625,-66.6791476005424
36987.3046875,-67.7099074333211
37011.71875,-68.1742145863853
37036.1328125,-65.9179955894999
37060.546875,-67.8774719802153
37084.9609375,-67.6418104839073
37109.375,-63.9062834642975
37133.7890625,-70.9964439097719
37158.203125,-82.4708958937594
37182.6171875,-73.222865814742
37207.03125,-73.6262218875735
37231.4453125,-68.4677573042701
37255.859375,-62.0977940277148
37280.2734375,-59.2560672534804
37304.6875,-70.320848026658
37329.1015625,-69.8006768486728
37353.515625,-82.6952726579152
37377.9296875,-73.3063595010971
37402.34375,-73.6901355660217
37426.7578125,-75.8500000051502
37451.171875,-70.5826284329114
37475.5859375,-74.9298738628347
37500,-69.061364176675
37524.4140625,-77.0789010489731
37548.828125,-73.8166084675998
37573.2421875,-75.0164107234763
37597.65625,-74.2080223282109
37622.0703125,-62.6419866352821
37646.484375,-63.003895170908
37670.8984375,-66.9607788357038
37695.3125,-88.964381156312
37719.7265625,-62.7620932401364
37744.140625,-62.6216980576728
37768.5546875,-70.6613897262841
37792.96875,-76.9859772148887
37817.3828125,-81.1205734357019
37841.796875,-71.7991967642056
37866.2109375,-66.9913354336691
37890.625,-70.1599398336764
37915.0390625,-67.4823282196422
37939.453125,-65.8265853358174
37963.8671875,-67.5541814219118
37988.28125,-70.4777260354886
38012.6953125,-80.6642344654799
38037.109375,-64.5569234352389
38061.5234375,-64.4912112024059
38085.9375,-72.4809843710208
38110.3515625,-76.6237725126984
38134.765625,-70.4805644525322
38159.1796875,-67.9475496723494
38183.59375,-62.397345075036
38208.0078125,-65.8213510790208
38232.421875,-63.0159667607543
38256.8359375,-71.2745027316754
38281.25,-69.1201908836681
38305.6640625,-61.9546917414872
38330.078125,-64.627652390163
38354.4921875,-70.1290444782388
38378.90625,-71.7755433124627
38403.3203125,-62.3703208162168
38427.734375,-64.9025394276345
38452.1484375,-62.69123519564
38476.5625,-60.1382060236851
38500.9765625,-65.0976092310256
38525.390625,-68.6319374247653
38549.8046875,-73.8712737256649
38574.21875,-63.8451004931341
38598.6328125,-69.7376540735305
38623.046875,-66.7988634793841
38647.4609375,-84.9391998016939
38671.875,-67.7029338941078
38696.2890625,-71.6946386679088
38720.703125,-65.1088756869667
38745.1171875,-88.5105434371681
38769.53125,-70.3392905521224
38793.9453125,-78.6994453119869
38818.359375,-68.0942109665919
38842.7734375,-63.8435567290237
38867.1875,-63.1367888781447
38891.6015625,-67.5857509780756
38916.015625,-64.5494974852368
38940.4296875,-67.7541914106799
38964.84375,-76.1139373175561
38989.2578125,-71.0823760610681
39013.671875,-65.5850645469449
39038.0859375,-68.1718042918301
39062.5,-67.699699563284
39086.9140625,-64.5693402044265
39111.328125,-67.6235123320272
39135.7421875,-76.0332004194298
39160.15625,-75.8793459500516
39184.5703125,-68.3294805935241
39208.984375,-66.3619958629126
39233.3984375,-73.7358374702768
39257.8125,-70.4019348466142
39282.2265625,-65.9933943132927
39306.640625,-69.9487302183169
39331.0546875,-72.284606277083
39355.46875,-63.9087065060376
39379.8828125,-64.3098731495613
39404.296875,-77.0769646363494
39428.7109375,-64.1518947831367
39453.125,-62.6141693565687
39477.5390625,-60.888526467208
39501.953125,-64.4539706022425
39526.3671875,-65.5300601175809
39550.78125,-68.7810759158075
39575.1953125,-63.8375208806148
39599.609375,-67.8141763750538
39624.0234375,-62.5497855614574
39648.4375,-63.1283704339469
39672.8515625,-61.7994717028948
39697.265625,-63.4714946560504
39721.6796875,-63.1002493197211
39746.09375,-64.4912277358342
39770.5078125,-64.2605176648049
39794.921875,-62.171619269571
39819.3359375,-63.8684387606287
39843.75,-68.1895610458276
39868.1640625,-69.7637137841561
39892.578125,-64.6308035943409
39916.9921875,-71.0367405456996
39941.40625,-66.5215977456931
39965.8203125,-62.748522328517
39990.234375,-69.3905903721671
40014.6484375,-70.2337439208063
40039.0625,-66.8700675523171
40063.4765625,-64.1056158001369
40087.890625,-67.9534309362856
40112.3046875,-69.5188074974219
40136.71875,-64.2959627180615
40161.1328125,-60.0723699151621
40185.546875,-58.7508586835217
40209.9609375,-64.3895220234632
40234.375,-63.1103990060269
40258.7890625,-63.7597170982153
40283.203125,-68.8532416320219
40307.6171875,-64.8389967894819
40332.03125,-64.7236042042225
40356.4453125,-75.895373373359
40380.859375,-69.073362083164
40405.2734375,-60.3349301186173
40429.6875,-60.7461303539392
40454.1015625,-66.2526022289125
40478.515625,-68.4166916874214
40502.9296875,-64.9677405447595
40527.34375,-68.7994154870424
40551.7578125,-69.9946741749779
40576.171875,-64.1929750075829
40600.5859375,-63.3466812061584
40625,-68.1015705042648
40649.4140625,-69.2642263038176
40673.828125,-75.9290902693207
40698.2421875,-68.6540207581533
40722.65625,-69.8538306349896
40747.0703125,-77.2975514405319
40771.484375,-74.652001846318
40795.8984375,-69.8041447453099
40820.3125,-60.3208997112385
40844.7265625,-60.1838736266103
40869.140625,-71.0496958728449
40893.5546875,-75.3379853793084
40917.96875,-68.1632722182031
40942.3828125,-70.851547211379
40966.796875,-71.7795717687088
40991.2109375,-71.8862921844796
41015.625,-68.8852174816384
41040.0390625,-68.7211979400444
41064.453125,-69.1062818230583
41088.8671875,-73.8076068874452
41113.28125,-62.8653537974217
41137.6953125,-63.9347063593019
41162.109375,-67.972754781918
41186.5234375,-63.145397423075
41210.9375,-66.4952942707631
41235.3515625,-68.529678079807
41259.765625,-69.8543941456161
41284.1796875,-61.7361842610298
41308.59375,-58.4900303331307
41333.0078125,-59.2462297192509
41357.421875,-62.0691901078055
41381.8359375,-69.2997561946073
41406.25,-83.3682999849525
41430.6640625,-68.4014534297147
41455.078125,-62.8967611600452
41479.4921875,-62.3597548432469
41503.90625,-66.0251949438975
41528.3203125,-71.4813060628561
41552.734375,-84.8874490096127
41577.1484375,-68.2839078170264
41601.5625,-65.0410311382473
41625.9765625,-60.990833807292
41650.390625,-60.0174388431637
41674.8046875,-60.2056502994145
41699.21875,-63.7379466950033
41723.6328125,-70.3525699137349
41748.046875,-67.0684499561392
41772.4609375,-62.0226576408644
41796.875,-62.9963394563123
41821.2890625,-68.658468007745
41845.703125,-63.8229600431206
41870.1171875,-69.2056223353343
41894.53125,-63.7447680669809
41918.9453125,-59.4353713925596
41943.359375,-58.2726032179627
41967.7734375,-60.8440521752189
41992.1875,-66.7210590288912
42016.6015625,-72.2521731848653
42041.015625,-69.1348728608081
42065.4296875,-63.7705248632162
42089.84375,-63.7037707827437
42114.2578125,-66.1052535712437
42138.671875,-69.8731591183908
42163.0859375,-66.0625722295897
42187.5,-63.9931416931854
42211.9140625,-63.4124448993438
42236.328125,-80.5697728606234
42260.7421875,-66.8825505379125
42285.15625,-67.9158118402719
42309.5703125,-62.0217393098026
42333.984375,-63.2384399617192
42358.3984375,-64.7783161474744
42382.8125,-69.0536605185345
42407.2265625,-69.4734186938606
42431.640625,-61.7187750351222
42456.0546875,-60.2558651264454
42480.46875,-62.2420925623912
42504.8828125,-75.4853201275474
42529.296875,-66.1365116849275
42553.7109375,-65.5033129086402
42578.125,-68.8659031933822
42602.5390625,-64.6181263700812
42626.953125,-65.3766190979599
42651.3671875,-61.6656810420537
42675.78125,-59.5184206484937
42700.1953125,-64.3766095258604
42724.609375,-61.6473674445467
42749.0234375,-66.4041665821852
42773.4375,-69.0601081745383
42797.8515625,-67.9694988245472
42822.265625,-63.0113322729595
42846.6796875,-61.8579429350709
42871.09375,-65.6963176640332
42895.5078125,-61.8448222219413
42919.921875,-61.4518225943797
42944.3359375,-66.0680207881886
42968.75,-68.0576677969361
42993.1640625,-70.6870643940105
43017.578125,-71.4201733654342
43041.9921875,-64.055786065175
43066.40625,-65.3722256521448
43090.8203125,-78.6796762687008
43115.234375,-66.2371084644023
43139.6484375,-62.5208466905651
43164.0625,-67.1012295893142
43188.4765625,-72.6788870220617
43212.890625,-73.5017025304735
43237.3046875,-63.4813411412449
43261.71875,-63.1846231979047
43286.1328125,-65.8616274507038
43310.546875,-74.7173561456314
43334.9609375,-66.3587403642685
43359.375,-84.0394785009284
43383.7890625,-69.9864560666987
43408.203125,-63.3875013565926
43432.6171875,-59.1424541886638
43457.03125,-61.1814274671035
43481.4453125,-60.5354464563508
43505.859375,-61.5694970952167
43530.2734375,-65.7712186644414
43554.6875,-63.4829114093013
43579.1015625,-65.4377486703485
43603.515625,-64.8268254034697
43627.9296875,-72.4666553275087
43652.34375,-70.1642437515621
43676.7578125,-69.6766154411816
43701.171875,-70.3081833176946
43725.5859375,-63.691133118407
43750,-75.3333499711578
43774.4140625,-64.6463153101591
43798.828125,-69.1401353092025
43823.2421875,-65.087260152028
43847.65625,-62.0630537488265
43872.0703125,-62.4564847116379
43896.484375,-62.3761670800944
43920.8984375,-66.1674348837529
43945.3125,-68.8591305380086
43969.7265625,-84.4198494610052
43994.140625,-66.8154926162877
44018.5546875,-65.5921886999917
44042.96875,-73.2789646803275
44067.3828125,-69.9738507597545
44091.796875,-68.7939456736257
44116.2109375,-70.0492639919422
44140.625,-78.3396456495666
44165.0390625,-89.6837264678778
44189.453125,-67.1035616904531
44213.8671875,-66.3291133789963
44238.28125,-73.7042885996066
44262.6953125,-68.7952661348599
44287.109375,-65.0982938471827
44311.5234375,-69.6172738627317
44335.9375,-62.0043769817322
44360.3515625,-59.3136039477969
44384.765625,-67.5496869824879
44409.1796875,-64.1059555942788
44433.59375,-61.390248743822
44458.0078125,-69.1494556734462
44482.421875,-69.1581962584408
44506.8359375,-60.1635652822456
44531.25,-61.4447319877676
44555.6640625,-63.7325868146818
44580.078125,-64.8866133791572
44604.4921875,-71.2191903177965
44628.90625,-60.0924200701978
44653.3203125,-61.5363234430452
44677.734375,-62.784503696803
44702.1484375,-60.152643092555
44726.5625,-64.8987554263479
44750.9765625,-58.3476306994122
44775.390625,-66.1586248917283
44799.8046875,-67.5724434898951
44824.21875,-62.6543201785589
44848.6328125,-62.3303210702392
44873.046875,-63.7367742175928
44897.4609375,-65.7212973153327
44921.875,-65.0291017515993
44946.2890625,-59.6654329254892
44970.703125,-61.0448208040548
44995.1171875,-65.2442185093591
45019.53125,-74.7523277185064
45043.9453125,-69.4329501588628
45068.359375,-75.5165578069506
45092.7734375,-71.2436006715893
45117.1875,-74.2041472678338
45141.6015625,-91.5116313863884
45166.015625,-73.0444793134769
45190.4296875,-71.1522481847468
45214.84375,-65.2946574577529
45239.2578125,-60.2632729541517
45263.671875,-62.3910942467153
45288.0859375,-62.8444352941661
45312.5,-65.75026563287
45336.9140625,-66.6778068113499
45361.328125,-67.9390539859385
45385.7421875,-70.3017671916924
45410.15625,-72.2738090128698
45434.5703125,-64.6228555340341
45458.984375,-72.3918995654588
45483.3984375,-62.1156189661901
45507.8125,-63.8138397742118
45532.2265625,-66.7216043606127
45556.640625,-64.2226154301505
45581.0546875,-61.8831616187486
45605.46875,-62.6665475436431
45629.8828125,-64.3665201068397
45654.296875,-63.3880217605434
45678.7109375,-67.7696294332369
45703.125,-71.4330173309228
45727.5390625,-71.5965458999074
45751.953125,-74.0594219240917
45776.3671875,-75.1249511159784
45800.78125,-73.1553267080406
45825.1953125,-60.8939577689933
45849.609375,-61.5625620911888
45874.0234375,-71.2351575371015
45898.4375,-70.987200797129
45922.8515625,-67.5767219869654
45947.265625,-66.3265690787867
45971.6796875,-62.4801628999985
45996.09375,-65.028662772112
46020.5078125,-67.3108220049788
46044.921875,-69.2221795407289
46069.3359375,-67.2039997552359
46093.75,-62.0446853023848
46118.1640625,-62.8843128943718
46142.578125,-65.8458467055933
46166.9921875,-69.9165855577568
46191.40625,-66.2936828735136
46215.8203125,-65.8358616840408
46240.234375,-72.6272327638428
46264.6484375,-68.2504389442477
46289.0625,-62.1770055726911
46313.4765625,-65.0358720676243
46337.890625,-75.1387392829537
46362.3046875,-69.2773747656299
46386.71875,-65.9319231666614
46411.1328125,-71.4050321826292
46435.546875,-74.0833226280597
46459.9609375,-68.9320113804102
46484.375,-73.7640549755335
46508.7890625,-63.5039718508566
46533.203125,-58.5010450278426
46557.6171875,-61.3606838755952
46582.03125,-64.8581397457392
46606.4453125,-60.2039675664737
46630.859375,-67.0670036586908
46655.2734375,-63.1553603048767
46679.6875,-66.6113255257666
46704.1015625,-81.5681168947455
46728.515625,-71.1542775954942
46752.9296875,-63.4193182958796
46777.34375,-73.787538677533
46801.7578125,-61.8218788699694
46826.171875,-62.6032510046806
46850.5859375,-58.7767479948567
46875,-58.7725489902375
46899.4140625,-62.1782381881816
46923.828125,-66.6590068233921
46948.2421875,-76.6720632267743
46972.65625,-65.0171204816462
46997.0703125,-75.3193005108389
47021.484375,-71.8945260550803
47045.8984375,-63.8102417662108
47070.3125,-62.9862022582328
47094.7265625,-66.0871283616152
47119.140625,-66.1665045483875
47143.5546875,-64.4247796831853
47167.96875,-65.6181319212231
47192.3828125,-72.7933576323186
47216.796875,-66.6584668002202
47241.2109375,-61.6144356037367
47265.625,-69.3297799293443
47290.0390625,-78.3263302835039
47314.453125,-71.5781147242062
47338.8671875,-73.4855571890771
47363.28125,-61.6630421047572
47387.6953125,-63.0562561714677
47412.109375,-71.7955426214566
47436.5234375,-75.6538807114737
47460.9375,-64.9331460390133
47485.3515625,-62.9982265018342
47509.765625,-69.0369821088003
47534.1796875,-70.4086120983313
47558.59375,-66.2045777287116
47583.0078125,-65.9551350563698
47607.421875,-69.1468039015659
47631.8359375,-65.2992897844595
47656.25,-75.2576897028561
47680.6640625,-60.7960801457064
47705.078125,-59.0373665800106
47729.4921875,-58.6595817826527
47753.90625,-64.1242659285739
47778.3203125,-64.7218945796024
47802.734375,-60.7417737030855
47827.1484375,-66.3712818370097
47851.5625,-72.9790288896392
47875.9765625,-84.5427061088326
47900.390625,-76.0545554039278
47924.8046875,-74.6889756861974
47949.21875,-78.1544397029976
47973.6328125,-66.9654121039129
47998.046875,-69.1175372945608
48022.4609375,-63.8008515314611
48046.875,-66.9547058874002
48071.2890625,-74.7856061351626
48095.703125,-73.8002717309668
48120.1171875,-70.9224425435919
48144.53125,-76.2319706012666
48168.9453125,-73.4409695604636
48193.359375,-80.8204433472216
48217.7734375,-62.5384530442967
48242.1875,-61.4429950121811
48266.6015625,-69.0777750809829
48291.015625,-78.2689390168156
48315.4296875,-69.617303859207
48339.84375,-63.2597907916325
48364.2578125,-62.2286322353711
48388.671875,-63.4058253425675
48413.0859375,-72.4845072977083
48437.5,-66.3128420896173
48461.9140625,-63.9796057608077
48486.328125,-67.9096734687366
48510.7421875,-69.1177158124976
48535.15625,-67.4120740246366
48559.5703125,-70.6088805296648
48583.984375,-69.8991691149685
48608.3984375,-66.0397702895068
48632.8125,-73.1843182886471
48657.2265625,-64.460963205711
48681.640625,-87.8315063948831
48706.0546875,-62.3608085040248
48730.46875,-59.4974181448033
48754.8828125,-61.597140605857
48779.296875,-72.9831745698449
48803.7109375,-68.1293370280329
48828.125,-67.2292652146101
48852.5390625,-66.7906676389804
48876.953125,-66.2323850054499
48901.3671875,-65.5712396094887
48925.78125,-72.0230732418777
48950.1953125,-61.6807511568353
48974.609375,-59.6468415341872
48999.0234375,-69.6931269040843
49023.4375,-63.1323245399689
49047.8515625,-62.5960573546204
49072.265625,-67.2859095824294
49096.6796875,-66.7863680834802
49121.09375,-83.6756887547728
49145.5078125,-65.3829429811468
49169.921875,-66.2930494859226
49194.3359375,-79.7271735266681
49218.75,-65.570801089371
49243.1640625,-67.7665495935222
49267.578125,-69.4864671174801
49291.9921875,-62.0395905050754
49316.40625,-64.4364137209947
49340.8203125,-68.441319573321
49365.234375,-68.7219068273498
49389.6484375,-65.4842789479721
49414.0625,-59.8461006586396
49438.4765625,-62.4050782842282
49462.890625,-62.9716531252488
49487.3046875,-65.8838648839597
49511.71875,-66.4058998026091
49536.1328125,-65.0084909013639
49560.546875,-70.0219012931799
49584.9609375,-69.7335125180484
49609.375,-65.0829428253225
49633.7890625,-64.6471922959111
49658.203125,-72.1606951168402
49682.6171875,-65.3512746538077
49707.03125,-62.129507183536
49731.4453125,-66.6287255042645
49755.859375,-63.052773650116
49780.2734375,-58.722300567498
49804.6875,-61.3700084246999
49829.1015625,-65.573018999524
49853.515625,-70.3651159988546
49877.9296875,-67.6029910191655
49902.34375,-64.3533053214333
49926.7578125,-69.2802414722453
49951.171875,-63.3827005385856
49975.5859375,-63.2542364295247
50000,-64.8105062159467
50024.4140625,-66.9377881899255
50048.828125,-64.5959016129675
50073.2421875,-59.8739106228829
50097.65625,-56.7912716306535
50122.0703125,-58.2876438627562
50146.484375,-60.6454444772369
50170.8984375,-61.4162823692582
50195.3125,-82.3635826792974
50219.7265625,-63.9641359364649
50244.140625,-63.50952828349
50268.5546875,-73.7929781765393
50292.96875,-77.4010789643049
50317.3828125,-76.876409283483
50341.796875,-65.7415474497681
50366.2109375,-70.4019993518858
50390.625,-61.9089130162321
50415.0390625,-60.3803098394298
50439.453125,-64.6452174693271
50463.8671875,-72.7211801662206
50488.28125,-75.6254846020431
50512.6953125,-65.4546807954509
50537.109375,-60.4438760823376
50561.5234375,-59.3613491512306
50585.9375,-60.4275435394326
50610.3515625,-59.5361632620289
50634.765625,-61.6209118640129
50659.1796875,-66.5578352546683
50683.59375,-60.1643965082259
50708.0078125,-68.1507655638156
50732.421875,-59.5622992181813
50756.8359375,-55.9942189412347
50781.25,-58.6489510148668
50805.6640625,-60.3695749607896
50830.078125,-63.8385030130992
50854.4921875,-72.7863680701912
50878.90625,-71.0939016281955
50903.3203125,-70.0943615533573
50927.734375,-63.4888460833426
50952.1484375,-55.2994928761158
50976.5625,-56.4123370635767
51000.9765625,-63.6143809603467
51025.390625,-65.4585766457759
51049.8046875,-68.2305205820433
51074.21875,-67.1791449918207
51098.6328125,-63.8594142324669
51123.046875,-61.5604260028965
51147.4609375,-67.0699113129373
51171.875,-77.4695658022073
51196.2890625,-67.8398409024096
51220.703125,-62.149110334813
51245.1171875,-61.8841515040614
51269.53125,-65.4261190237633
51293.9453125,-66.8603817803664
51318.359375,-61.4065062290952
51342.7734375,-60.909493144412
51367.1875,-74.1456353042129
51391.6015625,-69.5335274092354
51416.015625,-62.592801080701
51440.4296875,-63.1712913503436
51464.84375,-66.6991770464252
51489.2578125,-62.613888162821
51513.671875,-62.0788626081938
51538.0859375,-69.2459864460016
51562.5,-72.4596376673253
51586.9140625,-62.6869830894039
51611.328125,-62.6182731535372
51635.7421875,-79.5085268483527
51660.15625,-73.9328834802144
51684.5703125,-71.0142473522118
51708.984375,-70.3438314035028
51733.3984375,-67.0770932446629
51757.8125,-75.2998452319874
51782.2265625,-68.9738435533319
51806.640625,-63.0969111749137
51831.0546875,-65.7174137198813
51855.46875,-68.3714235323649
51879.8828125,-70.4981347531096
51904.296875,-72.5083754165711
51928.7109375,-70.3519527343211
51953.125,-72.0937075573911
51977.5390625,-61.519060890345
52001.953125,-64.6524539809671
52026.3671875,-61.3342866796041
52050.78125,-58.72142829463
52075.1953125,-64.1636478824657
52099.609375,-66.3404353884658
52124.0234375,-65.7306111601185
52148.4375,-69.3521455467884
52172.8515625,-72.5892766935674
52197.265625,-64.5577548398021
52221.6796875,-62.4047456611124
52246.09375,-66.0412252583941
52270.5078125,-68.7919057969946
52294.921875,-65.436569157178
52319.3359375,-62.441998136248
52343.75,-65.007531595002
52368.1640625,-66.9879250842102
52392.578125,-63.6254548314202
52416.9921875,-60.1828461527807
52441.40625,-68.9268243702429
52465.8203125,-62.6986969817498
52490.234375,-77.4446914123119
52514.6484375,-79.4481247259474
52539.0625,-67.0681612247437
52563.4765625,-69.658559691682
52587.890625,-70.2107845305207
52612.3046875,-66.1014069108153
52636.71875,-67.4096277382675
52661.1328125,-70.4906827579057
52685.546875,-75.7382317516453
52709.9609375,-70.5139273724185
52734.375,-66.1910793946474
52758.7890625,-62.0964424714429
52783.203125,-62.6713627244622
52807.6171875,-68.0291917452267
52832.03125,-66.5007563624452
52856.4453125,-66.6970329027512
52880.859375,-62.0811588400922
52905.2734375,-63.6767782071569
52929.6875,-72.9409354381525
52954.1015625,-68.9590974499501
52978.515625,-73.6988280388932
53002.9296875,-66.7508044361574
53027.34375,-68.3668370740939
53051.7578125,-69.5279938037825
53076.171875,-64.882708383753
53100.5859375,-66.7158571390593
53125,-62.8218573036871
53149.4140625,-66.2195476858814
53173.828125,-74.3981664744132
53198.2421875,-63.9415429146761
53222.65625,-65.4533463636998
53247.0703125,-67.0813186000622
53271.484375,-61.1440136633655
53295.8984375,-61.6831745124415
53320.3125,-60.3975521919882
53344.7265625,-60.9411754447905
53369.140625,-70.887680862126
53393.5546875,-62.3294822237369
53417.96875,-61.8131160272717
53442.3828125,-69.9974423156688
53466.796875,-74.418874559973
53491.2109375,-70.0106324836997
53515.625,-77.6695928776923
53540.0390625,-64.9984379151658
53564.453125,-64.9493447583117
53588.8671875,-73.5953331549627
53613.28125,-67.1346917136804
53637.6953125,-70.4790071331985
53662.109375,-68.0597025671642
53686.5234375,-79.511129510099
53710.9375,-60.4174697692796
53735.3515625,-60.372955912198
53759.765625,-69.9707952576096
53784.1796875,-64.0539011738919
53808.59375,-72.9135706034697
53833.0078125,-69.9218199525245
53857.421875,-69.4233138876016
53881.8359375,-70.0945869757454
53906.25,-63.7136322225767
53930.6640625,-65.3028787028061
53955.078125,-76.4722716428868
53979.4921875,-72.3339534607571
54003.90625,-73.4553208540993
54028.3203125,-66.1836441610336
54052.734375,-61.5755140146867
54077.1484375,-63.0893198858771
54101.5625,-74.2238503718372
54125.9765625,-73.0189087099338
54150.390625,-71.3202088320977
54174.8046875,-73.4873140762484
54199.21875,-62.5473544306081
54223.6328125,-61.9155140338542
54248.046875,-70.4675091493873
54272.4609375,-66.8230068480177
54296.875,-67.1532386334396
54321.2890625,-65.348618583929
54345.703125,-69.6686147848956
54370.1171875,-68.7823660479505
54394.53125,-66.095786792407
54418.9453125,-66.9955534127326
54443.359375,-66.7643133553643
54467.7734375,-72.6164137298299
54492.1875,-99.2447098655399
54516.6015625,-68.3654422327261
54541.015625,-65.3172787962863
54565.4296875,-64.6918159364188
54589.84375,-63.2764849033352
54614.2578125,-71.2985311725204
54638.671875,-71.0810110630344
54663.0859375,-65.9977566155782
54687.5,-62.2772527039795
54711.9140625,-65.1543274713478
54736.328125,-67.4710983344296
54760.7421875,-70.5665532262938
54785.15625,-66.339021892347
54809.5703125,-71.5460580857119
54833.984375,-65.0059739657949
54858.3984375,-67.3276251837263
54882.8125,-61.9462236794097
54907.2265625,-65.4866557274521
54931.640625,-75.9219250326218
54956.0546875,-71.7778582620516
54980.46875,-72.4698025064264
55004.8828125,-62.9788756774917
55029.296875,-65.5434891914755
55053.7109375,-67.3621880212364
55078.125,-73.2253346542993
55102.5390625,-65.2471535002644
55126.953125,-62.2421189570289
55151.3671875,-60.4435837840267
55175.78125,-61.3766548575491
55200.1953125,-64.2153331132209
55224.609375,-65.481278117512
55249.0234375,-63.052983949562
55273.4375,-67.8714776172027
55297.8515625,-67.5568284444758
55322.265625,-67.439524364839
55346.6796875,-54.908564238846
55371.09375,-56.1786105826647
55395.5078125,-74.7813812904308
55419.921875,-63.6814543839138
55444.3359375,-59.2236858148424
55468.75,-62.718561478132
55493.1640625,-62.2948936965954
55517.578125,-60.9774933670371
55541.9921875,-69.3246631844938
55566.40625,-61.2998940713657
55590.8203125,-60.7737338166633
55615.234375,-83.5374791457574
55639.6484375,-61.9524875409964
55664.0625,-69.1840386675293
55688.4765625,-66.6979147184338
55712.890625,-68.3207090954845
55737.3046875,-67.1094891351918
55761.71875,-62.0767584999105
55786.1328125,-66.6351122690536
55810.546875,-78.878451472318
55834.9609375,-68.7266705047264
55859.375,-67.1520448104086
55883.7890625,-64.1894967844205
55908.203125,-66.3000104905
55932.6171875,-62.1306617188451
55957.03125,-67.6280647557564
55981.4453125,-68.7063590664645
56005.859375,-68.2590884518988
56030.2734375,-62.722123092659
56054.6875,-65.249257839109
56079.1015625,-65.4063379038485
56103.515625,-64.4533895479966
56127.9296875,-72.6319993699717
56152.34375,-60.8296530041177
56176.7578125,-62.4903023683273
56201.171875,-67.5313705605736
56225.5859375,-66.5261726751218
56250,-72.7724743708884
56274.4140625,-78.0091581008607
56298.828125,-68.8642006462831
56323.2421875,-72.2681651628313
56347.65625,-68.59075964454
56372.0703125,-60.756627312783
56396.484375,-63.4966198937943
56420.8984375,-72.9658024582334
56445.3125,-64.1646932270745
56469.7265625,-65.091908759986
56494.140625,-67.8112101307134
56518.5546875,-67.4666732325001
56542.96875,-78.8611935343774
56567.3828125,-64.7763876722413
56591.796875,-63.7987092771144
56616.2109375,-62.7979112598253
56640.625,-62.6947966946596
56665.0390625,-65.4253397704037
56689.453125,-62.5650149947092
56713.8671875,-64.6684648443776
56738.28125,-63.6338328814791
56762.6953125,-65.9854368569697
56787.109375,-66.4283813001146
56811.5234375,-70.3894307183269
56835.9375,-75.3270248534898
56860.3515625,-69.1700562951893
56884.765625,-62.6119058103817
56909.1796875,-59.8319462548061
56933.59375,-61.2746859406872
56958.0078125,-71.1643033057355
56982.421875,-71.3707506197731
57006.8359375,-70.6193235901904
57031.25,-69.4637786527223
57055.6640625,-70.6038986035737
57080.078125,-70.1461948361246
57104.4921875,-67.215864068904
57128.90625,-80.332411332992
57153.3203125,-61.1720803183217
57177.734375,-61.5721196395483
57202.1484375,-63.2223513585826
57226.5625,-66.8805687883046
57250.9765625,-68.6740660518677
57275.390625,-64.6872118697395
57299.8046875,-61.2595318272546
57324.21875,-64.33506406081
57348.6328125,-67.7103455911486
57373.046875,-60.7373725221515
57397.4609375,-66.1960921976811
57421.875,-75.6821100963371
57446.2890625,-68.9246843571651
57470.703125,-72.2543062676111
57495.1171875,-71.0393170004872
57519.53125,-64.3600262557397
57543.9453125,-65.071883258433
57568.359375,-62.279413127034
57592.7734375,-64.171457025865
57617.1875,-63.9575484101675
57641.6015625,-72.2393256686861
57666.015625,-58.5369894347163
57690.4296875,-57.5759792612248
57714.84375,-63.6689511372361
57739.2578125,-69.9750439181541
57763.671875,-61.540255461438
57788.0859375,-60.28434583915
57812.5,-62.6075337990119
57836.9140625,-60.3870480149692
57861.328125,-68.9130555140257
57885.7421875,-70.1290378857693
57910.15625,-77.077834258308
57934.5703125,-68.0703718086868
57958.984375,-65.9792014880608
57983.3984375,-60.3610264957372
58007.8125,-63.5492834236908
58032.2265625,-75.2539162004786
58056.640625,-67.416851778511
58081.0546875,-69.9071090093544
58105.46875,-68.7077321303574
58129.8828125,-62.2162799409941
58154.296875,-59.3035982965811
58178.7109375,-70.1882024545384
58203.125,-70.0202914942479
58227.5390625,-64.7648370202574
58251.953125,-71.7771473626645
58276.3671875,-65.7748148585545
58300.78125,-62.0801616721458
58325.1953125,-67.619195593256
58349.609375,-68.4866183026398
58374.0234375,-64.7273915175843
58398.4375,-63.8176774513953
58422.8515625,-61.3875809272048
58447.265625,-61.8531436293646
58471.6796875,-66.2725203199733
58496.09375,-80.2938257179909
58520.5078125,-76.2030461155183
58544.921875,-72.0035454760697
58569.3359375,-69.4277641671678
58593.75,-65.0953398509357
58618.1640625,-61.743926004106
58642.578125,-64.1060947932742
58666.9921875,-76.1734478132507
58691.40625,-66.0760390453746
58715.8203125,-73.6364874215239
58740.234375,-85.6767307283739
58764.6484375,-74.8953933533351
58789.0625,-64.0652668438908
58813.4765625,-67.6830614787863
58837.890625,-72.5652195903643
58862.3046875,-76.1510914921291
58886.71875,-66.510188537625
58911.1328125,-64.9774383798035
58935.546875,-67.7309337029248
58959.9609375,-68.9250650914333
58984.375,-68.2002806254534
59008.7890625,-63.2032882154749
59033.203125,-62.1725445931114
59057.6171875,-59.9045784342661
59082.03125,-60.5080312050133
59106.4453125,-65.9626649068085
59130.859375,-68.0223366287667
59155.2734375,-63.289120395053
59179.6875,-68.1925598221035
59204.1015625,-65.7321436084713
59228.515625,-59.5876539714253
59252.9296875,-60.00377385496
59277.34375,-66.4584729260835
59301.7578125,-67.5213574765593
59326.171875,-64.6414020641402
59350.5859375,-82.0221911503919
59375,-69.9073018089482
59399.4140625,-63.0128045650613
59423.828125,-69.9818666440111
59448.2421875,-64.9765606283755
59472.65625,-64.6340958764351
59497.0703125,-60.4662712256497
59521.484375,-67.7171305584143
59545.8984375,-71.9030427354502
59570.3125,-68.3264244906876
59594.7265625,-65.4747029293818
59619.140625,-73.7183470082213
59643.5546875,-69.4724800490258
59667.96875,-64.1894203959181
59692.3828125,-60.8727628030513
59716.796875,-62.183595061274
59741.2109375,-70.5852475658376
59765.625,-60.7152558865273
59790.0390625,-69.6988150830187
59814.453125,-62.1312752964989
59838.8671875,-69.5687618218257
59863.28125,-65.6152696295059
59887.6953125,-68.1061386662685
59912.109375,-67.3807620275679
59936.5234375,-62.7111004906753
59960.9375,-95.8814159823314
59985.3515625,-65.2840509352505
60009.765625,-68.1570173056308
60034.1796875,-70.1281728080152
60058.59375,-67.4849176277716
60083.0078125,-62.6150692294785
60107.421875,-64.6674592249397
60131.8359375,-63.8382393322258
60156.25,-63.8248970245922
60180.6640625,-64.8195417213923
60205.078125,-65.8896479464003
60229.4921875,-67.7827520043631
60253.90625,-63.4799280210126
60278.3203125,-67.0861972361147
60302.734375,-66.2615117681474
60327.1484375,-64.2140271322251
60351.5625,-61.9274323200354
60375.9765625,-66.2037081714918
60400.390625,-81.1139888997867
60424.8046875,-76.7596597458619
60449.21875,-67.7028744233375
60473.6328125,-70.0436297723808
60498.046875,-69.4991044950962
60522.4609375,-63.2595039880155
60546.875,-58.5199290501747
60571.2890625,-57.4977904741814
60595.703125,-67.4186364272791
60620.1171875,-61.3700811049441
60644.53125,-61.8115048235576
60668.9453125,-68.7398497446706
60693.359375,-69.510536048026
60717.7734375,-62.2463345491916
60742.1875,-63.7809365375693
60766.6015625,-68.18369274078
60791.015625,-73.8302348839206
60815.4296875,-65.3221901372956
60839.84375,-64.7393317379191
60864.2578125,-64.2491147020775
60888.671875,-75.0942396138082
60913.0859375,-73.1606250459233
60937.5,-70.308665143132
60961.9140625,-60.4429072304243
60986.328125,-61.1734006342383
61010.7421875,-61.2437245082547
61035.15625,-59.4195727534003
61059.5703125,-66.1363498988845
61083.984375,-70.1341066816646
61108.3984375,-77.0159796194861
61132.8125,-66.8983451828311
61157.2265625,-61.6188263822258
61181.640625,-66.2575754949762
61206.0546875,-78.1759084284378
61230.46875,-64.1050834718214
61254.8828125,-61.3110359046461
61279.296875,-58.9899146438632
61303.7109375,-61.4331169404103
61328.125,-64.0522268959024
61352.5390625,-63.7431362804631
61376.953125,-81.1227433444877
61401.3671875,-63.6779260139646
61425.78125,-70.4224303675315
61450.1953125,-71.1237694241819
61474.609375,-69.8062164702175
61499.0234375,-64.9399116130301
61523.4375,-58.3271445109274
61547.8515625,-62.2034198679488
61572.265625,-58.3345882699282
61596.6796875,-66.9890053478164
61621.09375,-65.0741400988728
61645.5078125,-59.8392517238868
61669.921875,-60.5701544408059
61694.3359375,-58.9492746355169
61718.75,-66.2187450028813
61743.1640625,-66.9528348699256
61767.578125,-62.1791379875284
61791.9921875,-66.8011315445295
61816.40625,-66.2036304632393
61840.8203125,-64.34386071951
61865.234375,-61.3028217379513
61889.6484375,-61.3046177669949
61914.0625,-64.5587117644666
61938.4765625,-67.7380996858903
61962.890625,-73.1481291172627
61987.3046875,-67.0012030427665
62011.71875,-62.2713787480388
62036.1328125,-61.1287576811801
62060.546875,-72.6254736124466
62084.9609375,-67.1133259997767
62109.375,-63.2901192804331
62133.7890625,-64.0662201933052
62158.203125,-69.2249145271579
62182.6171875,-71.9088216246664
62207.03125,-69.7201689853813
62231.4453125,-73.8263809259618
62255.859375,-67.8091562098292
62280.2734375,-70.6370801629247
62304.6875,-69.7415546661038
62329.1015625,-63.843576920289
62353.515625,-70.1307884420125
62377.9296875,-70.8557038772559
62402.34375,-75.7511202747345
62426.7578125,-62.1720952524208
62451.171875,-57.7614618150366
62475.5859375,-57.2659429114791
62500,-62.5628238888454
62524.4140625,-67.6380614183597
62548.828125,-61.4038113675722
62573.2421875,-56.3920637925518
62597.65625,-58.1136186256689
62622.0703125,-71.0503197895795
62646.484375,-63.8237201518164
62670.8984375,-71.1033636381139
62695.3125,-59.5823341559854
62719.7265625,-60.4484257752049
62744.140625,-63.1476546426305
62768.5546875,-71.1194858716328
62792.96875,-66.3192127769138
62817.3828125,-61.3275049746318
62841.796875,-67.1979658738615
62866.2109375,-65.8435773552962
62890.625,-64.4773790802966
62915.0390625,-65.4637703761835
62939.453125,-66.5403230994442
62963.8671875,-61.5139999651917
62988.28125,-62.6089096565271
63012.6953125,-66.4471958512227
63037.109375,-66.3840116768212
63061.5234375,-63.2992842923958
63085.9375,-61.9520164357926
63110.3515625,-63.6826169686026
63134.765625,-65.2708615344877
63159.1796875,-63.371811477771
63183.59375,-59.8142796354768
63208.0078125,-57.9868000034718
63232.421875,-61.6144318115183
63256.8359375,-62.6159954986348
63281.25,-67.6572712487446
63305.6640625,-88.1442533083543
63330.078125,-64.9617321486013
63354.4921875,-61.6144721637665
63378.90625,-61.422495932953
63403.3203125,-65.1837947999159
63427.734375,-66.1862136785864
63452.1484375,-64.3959665870747
63476.5625,-63.0883866111543
63500.9765625,-56.9612056222646
63525.390625,-62.6832250921111
63549.8046875,-72.5688636160075
63574.21875,-79.0549892335027
63598.6328125,-63.7693686920289
63623.046875,-65.779703441835
63647.4609375,-71.4067793148915
63671.875,-68.8364886672987
63696.2890625,-66.54171799947
63720.703125,-58.1795062400127
63745.1171875,-56.148000022854
63769.53125,-57.3882965106903
63793.9453125,-57.5948959984554
63818.359375,-64.3428169933228
63842.7734375,-68.9468758532436
63867.1875,-63.5364352360818
63891.6015625,-67.2171814747724
63916.015625,-68.6667457951576
63940.4296875,-69.1290313046057
63964.84375,-62.818425685661
63989.2578125,-59.9632076561434
64013.671875,-58.4358792182998
64038.0859375,-58.3187771646386
64062.5,-67.0510112468459
64086.9140625,-64.5671919326157
64111.328125,-61.1734603923136
64135.7421875,-69.2193121707136
64160.15625,-71.9469213575476
64184.5703125,-63.4372790785783
64208.984375,-59.3623056010291
64233.3984375,-59.8019217230714
64257.8125,-72.402216990711
64282.2265625,-65.2924608509482
64306.640625,-62.8305782317218
64331.0546875,-60.733166625169
64355.46875,-58.533876229414
64379.8828125,-59.1526669435861
64404.296875,-69.6153564579145
64428.7109375,-65.0117101519918
64453.125,-68.5191390310446
64477.5390625,-67.678836805561
64501.953125,-68.2690571593718
64526.3671875,-74.254816090806
64550.78125,-65.8128194452592
64575.1953125,-62.8449983077932
64599.609375,-77.2671717119347
64624.0234375,-65.4337933462091
64648.4375,-60.1259004935582
64672.8515625,-67.4318368047709
64697.265625,-61.7694110506248
64721.6796875,-64.3683031897724
64746.09375,-67.3796366787577
64770.5078125,-71.2350785399537
64794.921875,-74.1711192416811
64819.3359375,-67.2217190695979
64843.75,-79.7289431269746
64868.1640625,-64.2664015681869
64892.578125,-62.7809476901522
64916.9921875,-63.7311463905606
64941.40625,-60.0210161756367
64965.8203125,-60.2628599315496
64990.234375,-73.957205288777
65014.6484375,-61.3649406272909
65039.0625,-64.3708585756017
65063.4765625,-65.112128739712
65087.890625,-72.6791199879283
65112.3046875,-85.6857305385772
65136.71875,-89.2311337388365
65161.1328125,-71.5640348278985
65185.546875,-65.4289461336575
65209.9609375,-69.8442379811143
65234.375,-62.2531498201053
65258.7890625,-62.787603477398
65283.203125,-65.2187587405197
65307.6171875,-76.0842548400059
65332.03125,-62.340790576787
65356.4453125,-66.9915047786261
65380.859375,-60.5093179530916
65405.2734375,-66.4392819807079
65429.6875,-66.6238384898642
65454.1015625,-63.2551236436518
65478.515625,-70.191017986526
65502.9296875,-61.9137223925342
65527.34375,-58.9196237805795
65551.7578125,-62.5271694258943
65576.171875,-59.9331452949295
65600.5859375,-62.0611374904689
65625,-63.187296017071
65649.4140625,-57.5949416873106
65673.828125,-59.6310126572736
65698.2421875,-72.5767410154454
65722.65625,-63.7925940915647
65747.0703125,-73.0760123152587
65771.484375,-70.0702282194323
65795.8984375,-72.4086523917912
65820.3125,-63.2571767149091
65844.7265625,-60.7490776286181
65869.140625,-64.3629886802858
65893.5546875,-68.9423774858921
65917.96875,-61.3501086499504
65942.3828125,-63.5436676399862
65966.796875,-70.3934740143659
65991.2109375,-73.7045776817737
66015.625,-70.9372105620451
66040.0390625,-63.9162295946388
66064.453125,-67.2796390880378
66088.8671875,-81.1533005388689
66113.28125,-71.5027809210851
66137.6953125,-67.1503907431328
66162.109375,-75.0270863357461
66186.5234375,-67.9179442192363
66210.9375,-63.4463672221466
66235.3515625,-66.5731896224571
66259.765625,-68.0995195942271
66284.1796875,-64.1113507585198
66308.59375,-65.9493106494892
66333.0078125,-66.7730040864017
66357.421875,-84.9646324537737
66381.8359375,-65.7212362321693
66406.25,-64.7348535750006
66430.6640625,-62.0025031910471
66455.078125,-64.6725780819816
66479.4921875,-71.4895510284767
66503.90625,-68.3027998824613
66528.3203125,-65.6388591259775
66552.734375,-63.9847428370916
66577.1484375,-66.8404974722673
66601.5625,-80.1695424657229
66625.9765625,-67.030135104952
66650.390625,-62.3684891708639
66674.8046875,-60.6666606037591
66699.21875,-69.5729918970258
66723.6328125,-69.5728417132595
66748.046875,-66.0929207676465
66772.4609375,-63.9697264906121
66796.875,-66.9981662023184
66821.2890625,-67.1827039743933
66845.703125,-61.1441229270409
66870.1171875,-58.2828781107736
66894.53125,-61.9832543890399
66918.9453125,-61.0930318982444
66943.359375,-64.7235881816532
66967.7734375,-61.2122572915995
66992.1875,-66.6742052477159
67016.6015625,-67.7719003780212
67041.015625,-62.9710933922981
67065.4296875,-62.3831792565828
67089.84375,-66.0720303644175
67114.2578125,-70.830674793023
67138.671875,-68.2931315861911
67163.0859375,-65.8204681936704
67187.5,-60.7369094661895
67211.9140625,-61.0514504970259
67236.328125,-70.2082415274969
67260.7421875,-63.9118019999973
67285.15625,-61.5059244337328
67309.5703125,-73.6296659028672
67333.984375,-72.0726604628848
67358.3984375,-75.6303576440006
67382.8125,-75.2222580121419
67407.2265625,-68.4476203477302
67431.640625,-67.6417384874469
67456.0546875,-69.4236070599952
67480.46875,-63.6121385200729
67504.8828125,-63.0388589660976
67529.296875,-65.3074827189477
67553.7109375,-62.987093104876
67578.125,-61.8424985882125
67602.5390625,-59.525220565176
67626.953125,-62.6114372436754
67651.3671875,-81.1432988682759
67675.78125,-69.6510438421973
67700.1953125,-63.0901668935446
67724.609375,-64.9693330308373
67749.0234375,-63.4793907678178
67773.4375,-59.1491044732406
67797.8515625,-62.3575936162923
67822.265625,-68.4418447172804
67846.6796875,-61.3378558007424
67871.09375,-62.6762973795272
67895.5078125,-66.3239904064099
67919.921875,-66.9755571713269
67944.3359375,-68.2020365155631
67968.75,-62.471048169787
67993.1640625,-67.8540802565259
68017.578125,-69.2464077397757
68041.9921875,-72.5696569479734
68066.40625,-61.3095915685601
68090.8203125,-66.7242521270344
68115.234375,-63.2996149163981
68139.6484375,-60.9465241720699
68164.0625,-66.9514193910564
68188.4765625,-62.326625385729
68212.890625,-69.9038787326556
68237.3046875,-67.6641624663205
68261.71875,-67.3972571840436
68286.1328125,-60.7906963945396
68310.546875,-57.8576130743741
68334.9609375,-60.0882060720525
68359.375,-63.7639664443367
68383.7890625,-66.6967224346869
68408.203125,-58.5955442674033
68432.6171875,-61.3783961497523
68457.03125,-68.826472924785
68481.4453125,-81.7279903024349
68505.859375,-70.0021319329267
68530.2734375,-71.8190580490433
68554.6875,-64.0469513707594
68579.1015625,-67.1771086556538
68603.515625,-66.0995697430954
68627.9296875,-67.088549533892
68652.34375,-64.5189087212803
68676.7578125,-63.5132691100691
68701.171875,-70.3492702029861
68725.5859375,-60.7940272920672
68750,-64.7182356873407
68774.4140625,-62.0889041831872
68798.828125,-61.0183989717031
68823.2421875,-74.0515943777488
68847.65625,-66.9014706569808
68872.0703125,-68.2708638371392
68896.484375,-65.6390159809972
68920.8984375,-70.287064812822
68945.3125,-75.0754178096698
68969.7265625,-65.3415414831306
68994.140625,-65.3446193360044
69018.5546875,-71.2863102076345
69042.96875,-78.2930981111709
69067.3828125,-68.9738864433746
69091.796875,-66.7949443876771
69116.2109375,-74.0047898097041
69140.625,-73.0243707269129
69165.0390625,-63.5441753654351
69189.453125,-62.1714836166234
69213.8671875,-65.2202227850521
69238.28125,-67.3583275534289
69262.6953125,-58.9056271908873
69287.109375,-57.6733684935087
69311.5234375,-58.9087056925523
69335.9375,-62.2399790551546
69360.3515625,-70.5965681527451
69384.765625,-66.9430674265313
69409.1796875,-63.5409721177008
69433.59375,-71.1692474711565
69458.0078125,-69.3993586099099
69482.421875,-60.4559188085224
69506.8359375,-56.3012345585824
69531.25,-59.1966071118058
69555.6640625,-67.9660896204257
69580.078125,-68.7572859200091
69604.4921875,-64.0881673465691
69628.90625,-77.6818377295837
69653.3203125,-63.4911451321327
69677.734375,-73.6654083437165
69702.1484375,-68.0443210070152
69726.5625,-67.1767080431264
69750.9765625,-61.9776101215972
69775.390625,-64.968356297942
69799.8046875,-62.877805789113
69824.21875,-62.3646861496934
69848.6328125,-65.5729991542017
69873.046875,-62.9089869532014
69897.4609375,-63.0546095456154
69921.875,-68.7102835715457
69946.2890625,-64.5931482358886
69970.703125,-59.729786098405
69995.1171875,-69.2672684818721
70019.53125,-70.8958903123237
70043.9453125,-63.8754771904076
70068.359375,-62.1030648257616
70092.7734375,-84.1927623599331
70117.1875,-62.4678101366115
70141.6015625,-60.9269617460143
70166.015625,-61.7463034694424
70190.4296875,-58.6047409222177
70214.84375,-68.0282317180416
70239.2578125,-59.6255230965408
70263.671875,-63.9338945948503
70288.0859375,-72.4364201611631
70312.5,-67.1898580939124
70336.9140625,-58.0759532819972
70361.328125,-58.5551026647986
70385.7421875,-58.8753935966311
70410.15625,-59.3566466724731
70434.5703125,-64.6318070119017
70458.984375,-77.6087781109437
70483.3984375,-75.6927252610147
70507.8125,-62.8413037794597
70532.2265625,-57.7403739256076
70556.640625,-58.9645600623218
70581.0546875,-60.0776023377816
70605.46875,-66.3016029302115
70629.8828125,-68.645085659774
70654.296875,-68.8428213671251
70678.7109375,-66.2127339666381
70703.125,-64.3917250888484
70727.5390625,-66.0907163210616
70751.953125,-79.7164252872674
70776.3671875,-64.0019537611296
70800.78125,-64.5045089647594
70825.1953125,-63.1866983135922
70849.609375,-64.8966145460992
70874.0234375,-61.3038405107453
70898.4375,-62.5884078249121
70922.8515625,-72.5318643112515
70947.265625,-70.0273465624498
70971.6796875,-75.6292828508283
70996.09375,-66.1870506311215
71020.5078125,-77.0825462896372
71044.921875,-61.367734959578
71069.3359375,-60.7750967292236
71093.75,-67.9936337191849
71118.1640625,-69.7536472999595
71142.578125,-66.9403150643844
71166.9921875,-68.485402755661
71191.40625,-62.740774439639
71215.8203125,-63.8321403167568
71240.234375,-64.1043134195304
71264.6484375,-74.4234985927814
71289.0625,-70.4026827151857
71313.4765625,-66.8033343058713
71337.890625,-86.8888686758767
71362.3046875,-68.6132627427847
71386.71875,-79.8673155587531
71411.1328125,-74.5626502854045
71435.546875,-62.8400125845009
71459.9609375,-60.9201805144099
71484.375,-66.0589740039232
71508.7890625,-71.78244192572
71533.203125,-65.2305802110234
71557.6171875,-57.8126090437292
71582.03125,-59.331895382232
71606.4453125,-67.2656708086417
71630.859375,-77.2334016821412
71655.2734375,-63.0728560359098
71679.6875,-58.9866550182392
71704.1015625,-63.3721424037805
71728.515625,-67.8797341579194
71752.9296875,-71.9314181952913
71777.34375,-68.7644816883836
71801.7578125,-66.3847550829743
71826.171875,-76.6216342266039
71850.5859375,-60.7734004870742
71875,-58.7895268225445
71899.4140625,-63.4929740733503
71923.828125,-56.2405038233268
71948.2421875,-59.002544701306
71972.65625,-75.8183890013713
71997.0703125,-67.2896468049381
72021.484375,-69.3737648594125
72045.8984375,-62.051002460303
72070.3125,-59.4629497599403
72094.7265625,-60.9914099637497
72119.140625,-71.9383085588064
72143.5546875,-63.9970228930992
72167.96875,-60.4499839148524
72192.3828125,-61.6222162185406
72216.796875,-60.4179168699071
72241.2109375,-61.6924327872924
72265.625,-70.8379885754577
72290.0390625,-61.495560653879
72314.453125,-80.7497430689226
72338.8671875,-64.3510790069252
72363.28125,-66.3323818185607
72387.6953125,-72.8653217601922
72412.109375,-71.5274100710008
72436.5234375,-65.5980212494052
72460.9375,-62.5425303913776
72485.3515625,-61.5438959037571
72509.765625,-67.0832763402525
72534.1796875,-68.8966989100741
72558.59375,-61.5367725685808
72583.0078125,-61.6892257324485
72607.421875,-62.3833540830569
72631.8359375,-60.6803697535389
72656.25,-68.3349135665576
72680.6640625,-67.4073483136366
72705.078125,-61.0752351824752
72729.4921875,-60.2553522382997
72753.90625,-67.1657624718492
72778.3203125,-72.2611774511815
72802.734375,-71.9207833404715
72827.1484375,-64.2963952564217
72851.5625,-63.2463812726209
72875.9765625,-69.8661546816617
72900.390625,-66.1324144494529
72924.8046875,-65.8218759190146
72949.21875,-61.7507616939827
72973.6328125,-57.8215593239756
72998.046875,-64.5748283434663
73022.4609375,-63.032696434029
73046.875,-70.5425371870248
73071.2890625,-70.8893976238557
73095.703125,-67.8748426288599
73120.1171875,-64.7166937442298
73144.53125,-65.6792360903888
73168.9453125,-65.6010626247671
73193.359375,-60.3059824621141
73217.7734375,-61.8289945965436
73242.1875,-63.8019334512356
73266.6015625,-58.2837026342937
73291.015625,-60.6713950016167
73315.4296875,-67.8973727972682
73339.84375,-63.157516253722
73364.2578125,-64.7438429112591
73388.671875,-70.8481057119821
73413.0859375,-62.3445563754978
73437.5,-62.0340478121179
73461.9140625,-60.3183828361043
73486.328125,-60.0672318307327
73510.7421875,-61.224644189578
73535.15625,-64.5201357992506
73559.5703125,-67.9471235908493
73583.984375,-68.2349789551083
73608.3984375,-66.3609770220756
73632.8125,-66.2745328980415
73657.2265625,-72.7075910028506
73681.640625,-67.6577467536294
73706.0546875,-64.1800917313888
73730.46875,-63.7836564135322
73754.8828125,-66.7528875820329
73779.296875,-75.6000454079408
73803.7109375,-62.7809352878447
73828.125,-63.6191854831055
73852.5390625,-72.4925757763519
73876.953125,-68.3167887622727
73901.3671875,-70.4840081012708
73925.78125,-67.388419579891
73950.1953125,-64.0516231390408
73974.609375,-62.2206267941041
73999.0234375,-64.0755385955028
74023.4375,-73.9034572805503
74047.8515625,-69.0201687321566
74072.265625,-67.7968667060204
74096.6796875,-66.0762031697421
74121.09375,-71.5278305322084
74145.5078125,-66.2662132209095
74169.921875,-73.2440822831456
74194.3359375,-69.3735572224309
74218.75,-90.2315012433975
74243.1640625,-65.0123141932494
74267.578125,-64.5832307907293
74291.9921875,-67.151172502957
74316.40625,-67.2869562659321
74340.8203125,-72.3742520812748
74365.234375,-70.1014912069631
74389.6484375,-67.0751908004765
74414.0625,-69.354318338497
74438.4765625,-63.5432271112796
74462.890625,-65.4085695114242
74487.3046875,-62.074814832199
74511.71875,-62.5195489375625
74536.1328125,-74.2262259677603
74560.546875,-62.3103734507753
74584.9609375,-66.1071181514585
74609.375,-74.5919106112534
74633.7890625,-65.1999630803317
74658.203125,-63.5873150546302
74682.6171875,-67.4443279739717
74707.03125,-66.2092259976222
74731.4453125,-66.6353125597823
74755.859375,-63.1676431097787
74780.2734375,-62.5439107480933
74804.6875,-71.2726093925884
74829.1015625,-66.8883171432977
74853.515625,-62.6455582636499
74877.9296875,-67.8525810612235
74902.34375,-70.9930430267651
74926.7578125,-66.4049510431172
74951.171875,-58.6915614277047
74975.5859375,-60.3666169254646
75000,-63.8091515373827
75024.4140625,-61.7390139988068
75048.828125,-68.9173697491758
75073.2421875,-74.2051054546936
75097.65625,-66.9904999815276
75122.0703125,-60.6012495524583
75146.484375,-62.6016076492529
75170.8984375,-64.0739763012567
75195.3125,-59.0517947340446
75219.7265625,-62.5032222446241
75244.140625,-63.1133624022901
75268.5546875,-67.9146411137411
75292.96875,-69.2177826072121
75317.3828125,-70.2758501632281
75341.796875,-63.7032091737802
75366.2109375,-58.8866943050739
75390.625,-58.1505249813344
75415.0390625,-61.1176768725868
75439.453125,-62.5451600349335
75463.8671875,-64.8796037011106
75488.28125,-67.8602303148884
75512.6953125,-61.2007019388555
75537.109375,-68.8382484858465
75561.5234375,-70.8604248016042
75585.9375,-62.2613491106049
75610.3515625,-56.2555144599969
75634.765625,-57.0882483726943
75659.1796875,-66.7309631091796
75683.59375,-68.729559706417
75708.0078125,-65.3718898741711
75732.421875,-62.7786236632003
75756.8359375,-59.634874052164
75781.25,-69.0390856915744
75805.6640625,-72.935977926621
75830.078125,-62.1470246738095
75854.4921875,-57.7050956551392
75878.90625,-58.4168848598163
75903.3203125,-59.668360638375
75927.734375,-57.3568203973639
75952.1484375,-57.591385690874
75976.5625,-60.2091795442598
76000.9765625,-61.1605610184366
76025.390625,-62.0443011735799
76049.8046875,-66.9350815803216
76074.21875,-57.2519400011603
76098.6328125,-61.8655881860376
76123.046875,-61.6920518603472
76147.4609375,-66.4914456498079
76171.875,-64.0049388374833
76196.2890625,-56.3329093386621
76220.703125,-58.9029009125305
76245.1171875,-65.6202667008672
76269.53125,-68.7233995192108
76293.9453125,-71.5093876722507
76318.359375,-68.9608521768567
76342.7734375,-65.3211159176352
76367.1875,-65.882659428652
76391.6015625,-62.4628623861768
76416.015625,-65.2278462060369
76440.4296875,-66.7596349546568
76464.84375,-68.4887731408925
76489.2578125,-74.6339235649348
76513.671875,-84.2150387737335
76538.0859375,-69.0404752827999
76562.5,-65.6520529593574
76586.9140625,-64.2978162014651
76611.328125,-68.0056037524437
76635.7421875,-68.1743111879313
76660.15625,-68.6927862230701
76684.5703125,-62.7484383285144
76708.984375,-61.2349796891455
76733.3984375,-64.1039566756915
76757.8125,-77.8189115057668
76782.2265625,-70.0959224622353
76806.640625,-70.1776300230422
76831.0546875,-66.4533048826046
76855.46875,-70.5053789497447
76879.8828125,-65.5401160989962
76904.296875,-60.078377093208
76928.7109375,-61.1071616180853
76953.125,-67.3593200612014
76977.5390625,-71.449594670602
77001.953125,-67.7329572495933
77026.3671875,-68.4302988129262
77050.78125,-71.9088556893924
77075.1953125,-66.7129882829564
77099.609375,-60.5728542832359
77124.0234375,-61.06954528481
77148.4375,-59.1126290152591
77172.8515625,-60.7246129427701
77197.265625,-67.6768736473792
77221.6796875,-66.6021522496654
77246.09375,-61.8611381382205
77270.5078125,-67.4236104685005
77294.921875,-63.3011735376011
77319.3359375,-61.2665417816482
77343.75,-66.2333413069998
77368.1640625,-69.7180898309445
77392.578125,-69.041771919695
77416.9921875,-64.8033923937036
77441.40625,-67.0658755389359
77465.8203125,-68.7776409271807
77490.234375,-62.1276247520352
77514.6484375,-60.410954104342
77539.0625,-68.9065944356905
77563.4765625,-62.3854167735709
77587.890625,-70.1719957810264
77612.3046875,-60.2927543324235
77636.71875,-61.3164077617002
77661.1328125,-69.2277049426658
77685.546875,-63.7846529144667
77709.9609375,-68.2630767860196
77734.375,-64.4609089063874
77758.7890625,-61.4330607513213
77783.203125,-59.4115879931247
77807.6171875,-58.3109313109148
77832.03125,-68.5309970660896
77856.4453125,-76.4709379242317
77880.859375,-63.878576351147
77905.2734375,-64.1300068122629
77929.6875,-65.2205628135581
77954.1015625,-62.6122931596744
77978.515625,-64.4382727766524
78002.9296875,-69.6639404541308
78027.34375,-71.102413106952
78051.7578125,-63.8135318853144
78076.171875,-65.6775885845871
78100.5859375,-73.6333257979412
78125,-70.233037745946
78149.4140625,-68.0067630966133
78173.828125,-75.465711394834
78198.2421875,-67.4054557726954
78222.65625,-68.7785258174559
78247.0703125,-70.3273446276577
78271.484375,-67.2224291902153
78295.8984375,-73.6091038197561
78320.3125,-73.2370290663697
78344.7265625,-69.1349316305004
78369.140625,-63.393188404035
78393.5546875,-66.7242389743474
78417.96875,-73.5654682182689
78442.3828125,-70.6260445968696
78466.796875,-94.1683429198779
78491.2109375,-66.2578445463144
78515.625,-62.3955793551656
78540.0390625,-64.5811459307286
78564.453125,-61.5181758770604
78588.8671875,-60.4527232566023
78613.28125,-65.9680240029395
78637.6953125,-69.9339649400277
78662.109375,-73.7040497374893
78686.5234375,-81.6136190531091
78710.9375,-76.0744608136727
78735.3515625,-80.3930229329542
78759.765625,-60.2260029900303
78784.1796875,-55.9805148443762
78808.59375,-56.539263328487
78833.0078125,-62.6945762679522
78857.421875,-81.1872438693295
78881.8359375,-80.05577914935
78906.25,-64.0345478844255
78930.6640625,-64.5247043498501
78955.078125,-70.8076801470926
78979.4921875,-73.8196917952607
79003.90625,-62.1043879755665
79028.3203125,-59.1861767242415
79052.734375,-60.2231762048123
79077.1484375,-61.4721390275005
79101.5625,-73.6881960907904
79125.9765625,-66.2920515992862
79150.390625,-65.690241200037
79174.8046875,-60.7660545365796
79199.21875,-56.86143666068
79223.6328125,-60.7698576675094
79248.046875,-66.2367692963218
79272.4609375,-63.3910600307941
79296.875,-62.9555863620687
79321.2890625,-62.5487096271591
79345.703125,-58.2927951634416
79370.1171875,-55.7991100018192
79394.53125,-58.6786508083559
79418.9453125,-57.6581970711603
79443.359375,-58.5546159374479
79467.7734375,-69.3206963486053
79492.1875,-71.4185919192454
79516.6015625,-80.3690611487288
79541.015625,-66.2279756867536
79565.4296875,-61.2957171380916
79589.84375,-60.6133177652597
79614.2578125,-61.2848728101094
79638.671875,-62.444234822499
79663.0859375,-69.6628500900332
79687.5,-62.1206377327487
79711.9140625,-59.1605938636049
79736.328125,-59.4323862247769
79760.7421875,-66.2198338793365
79785.15625,-57.1985064490552
79809.5703125,-58.8171419168642
79833.984375,-64.0210019685343
79858.3984375,-65.9803353559113
79882.8125,-61.7379290703969
79907.2265625,-61.0352539757119
79931.640625,-64.5459228084504
79956.0546875,-71.6216061658283
79980.46875,-72.2979905614167
80004.8828125,-65.0478375107887
80029.296875,-67.4982157195854
80053.7109375,-71.4391975893427
80078.125,-72.8352572924351
80102.5390625,-74.6125760034718
80126.953125,-75.7812548636699
80151.3671875,-72.9479938882952
80175.78125,-62.4173618449186
80200.1953125,-60.6890585926516
80224.609375,-64.6143917112917
80249.0234375,-65.3479753357647
80273.4375,-62.8712969232141
80297.8515625,-67.4994065462133
80322.265625,-78.8051419580814
80346.6796875,-64.8192625527336
80371.09375,-62.7647349545116
80395.5078125,-64.4792518679131
80419.921875,-59.4058136004802
80444.3359375,-60.7871897826037
80468.75,-59.6813629321569
80493.1640625,-74.1440501704866
80517.578125,-70.199731170646
80541.9921875,-72.4566005728041
80566.40625,-62.5507098174425
80590.8203125,-65.8314997444617
80615.234375,-60.6857550617956
80639.6484375,-81.6884867738307
80664.0625,-58.4388550678363
80688.4765625,-58.6112046193755
80712.890625,-62.367193169516
80737.3046875,-62.4081868476286
80761.71875,-72.0933799375543
80786.1328125,-61.2617179502311
80810.546875,-62.1700854541933
80834.9609375,-75.3291170750068
80859.375,-72.5061041432475
80883.7890625,-68.756526947237
80908.203125,-60.5012808664924
80932.6171875,-66.1753545185411
80957.03125,-82.0132338945584
80981.4453125,-68.0239960349848
81005.859375,-62.7763394374845
81030.2734375,-63.1346064512252
81054.6875,-74.3504961149509
81079.1015625,-64.6890244463456
81103.515625,-70.1589020261162
81127.9296875,-69.0435915305671
81152.34375,-81.859827589935
81176.7578125,-64.1229103685301
81201.171875,-56.984083093791
81225.5859375,-59.3925429298523
81250,-63.0528884258183
81274.4140625,-67.1484849648092
81298.828125,-69.0936433798456
81323.2421875,-69.2921927554677
81347.65625,-63.8193575787786
81372.0703125,-68.3556487427012
81396.484375,-66.3983997405811
81420.8984375,-62.9372554951677
81445.3125,-62.7267847073832
81469.7265625,-65.3744621062166
81494.140625,-64.9433034363286
81518.5546875,-70.391006974593
81542.96875,-66.4030792127519
81567.3828125,-71.0821534739904
81591.796875,-63.8487524979794
81616.2109375,-69.6020526156079
81640.625,-62.314640545301
81665.0390625,-60.2271124428709
81689.453125,-58.4749429052342
81713.8671875,-63.0843633960631
81738.28125,-62.9744110849924
81762.6953125,-63.0130428105506
81787.109375,-72.4401616883844
81811.5234375,-70.9265860009055
81835.9375,-70.4657813797456
81860.3515625,-70.5593024390975
81884.765625,-66.1088325264661
81909.1796875,-63.41601169558
81933.59375,-59.8547010482767
81958.0078125,-59.4880714668181
81982.421875,-56.0922836435141
82006.8359375,-56.3189114241502
82031.25,-61.3801318722188
82055.6640625,-76.3745201378948
82080.078125,-68.4428695597598
82104.4921875,-67.4504016766075
82128.90625,-62.6126173564137
82153.3203125,-57.4747327520898
82177.734375,-61.462888747118
82202.1484375,-65.5592652985463
82226.5625,-65.0646936570005
82250.9765625,-74.6854805729666
82275.390625,-64.7273409207554
82299.8046875,-67.1234727238422
82324.21875,-67.4676458414956
82348.6328125,-82.4323001816446
82373.046875,-59.1942489945313
82397.4609375,-56.9441851255802
82421.875,-62.3497295684247
82446.2890625,-64.0323355538068
82470.703125,-59.4594049646404
82495.1171875,-63.4610126360942
82519.53125,-65.7699185980743
82543.9453125,-57.7345666214026
82568.359375,-59.3235155923627
82592.7734375,-61.5490748783666
82617.1875,-61.5986721443023
82641.6015625,-69.4186561243124
82666.015625,-60.3535297306705
82690.4296875,-60.4299827000642
82714.84375,-63.2839618894768
82739.2578125,-60.3307054927
82763.671875,-63.0753773285551
82788.0859375,-61.2762505092993
82812.5,-61.6825969185472
82836.9140625,-69.6764227991683
82861.328125,-60.4302265361949
82885.7421875,-60.8000578514857
82910.15625,-63.602184585629
82934.5703125,-65.5197799256886
82958.984375,-59.3598958339799
82983.3984375,-63.6002335788746
83007.8125,-59.3446086221726
83032.2265625,-60.3709028051028
83056.640625,-65.4223218856301
83081.0546875,-65.7642118980556
83105.46875,-61.3304716421224
83129.8828125,-58.5087389939208
83154.296875,-59.1072712191258
83178.7109375,-61.0039364258572
83203.125,-65.6620471646874
83227.5390625,-64.4482944020136
83251.953125,-84.9468510014092
83276.3671875,-64.8417660491492
83300.78125,-75.2391508620294
83325.1953125,-60.4393610189436
83349.609375,-59.7749435873479
83374.0234375,-71.6261564646302
83398.4375,-70.8414228348376
83422.8515625,-65.3345082360019
83447.265625,-61.8126451618664
83471.6796875,-61.7567666625052
83496.09375,-59.1070591730594
83520.5078125,-58.5182882991979
83544.921875,-64.032904753124
83569.3359375,-78.8446780491345
83593.75,-74.8930498726357
83618.1640625,-60.838861735566
83642.578125,-60.401067317753
83666.9921875,-64.7093580612226
83691.40625,-73.4715204601679
83715.8203125,-66.5705352527278
83740.234375,-61.714045836548
83764.6484375,-64.3813641410319
83789.0625,-63.442220113504
83813.4765625,-59.9115917000235
83837.890625,-57.7721404164127
83862.3046875,-57.5777803190784
83886.71875,-62.4209055216405
83911.1328125,-71.4287019109385
83935.546875,-61.8655971984371
83959.9609375,-60.6577509294482
83984.375,-61.2438409709625
84008.7890625,-60.4768630764759
84033.203125,-63.7199295664877
84057.6171875,-78.7447847857305
84082.03125,-67.6782970245701
84106.4453125,-60.9702746246122
84130.859375,-64.3027422503346
84155.2734375,-65.9354609032535
84179.6875,-59.2707142716762
84204.1015625,-60.0270099969977
84228.515625,-67.3655621914327
84252.9296875,-60.4910787805682
84277.34375,-59.317767771469
84301.7578125,-59.3486182564077
84326.171875,-61.5892264057265
84350.5859375,-64.3718105316345
84375,-72.6112824083064
84399.4140625,-68.5698045560574
84423.828125,-69.0051187879307
84448.2421875,-61.5744809173218
84472.65625,-69.9730250098335
84497.0703125,-63.9091307976586
84521.484375,-71.3117625916796
84545.8984375,-72.2587707669398
84570.3125,-64.8261865426512
84594.7265625,-62.3707120366612
84619.140625,-67.3468607820615
84643.5546875,-71.3522448581369
84667.96875,-60.8542878787484
84692.3828125,-58.8145341932363
84716.796875,-65.9701498939104
84741.2109375,-62.2962749434309
84765.625,-69.7854744917297
84790.0390625,-66.8255397211453
84814.453125,-70.3976438264469
84838.8671875,-63.8972801092066
84863.28125,-63.2791056410352
84887.6953125,-65.9099188941311
84912.109375,-65.2781170309023
84936.5234375,-59.5486535973707
84960.9375,-60.0353035226983
84985.3515625,-67.1436750018963
85009.765625,-65.4647668608739
85034.1796875,-66.9118824069464
85058.59375,-63.9177203884491
85083.0078125,-62.2628543829176
85107.421875,-61.8777227833204
85131.8359375,-63.5784360019961
85156.25,-66.693336563692
85180.6640625,-67.0342615224847
85205.078125,-78.0353844095081
85229.4921875,-77.9503985690913
85253.90625,-65.0990045058945
85278.3203125,-61.9132812823557
85302.734375,-60.0017988470518
85327.1484375,-61.3548678174726
85351.5625,-66.5851019220152
85375.9765625,-81.97332809856
85400.390625,-68.3656311142813
85424.8046875,-60.5329246014086
85449.21875,-63.174562148835
85473.6328125,-76.8725036083821
85498.046875,-68.5987351800488
85522.4609375,-61.1136376209175
85546.875,-60.8050996621151
85571.2890625,-64.7622730740509
85595.703125,-73.2162939840889
85620.1171875,-68.8588254521267
85644.53125,-71.5351448269314
85668.9453125,-76.5382398501968
85693.359375,-84.481432335924
85717.7734375,-75.6903783882266
85742.1875,-66.325766054422
85766.6015625,-72.9834098625144
85791.015625,-71.7862133387149
85815.4296875,-62.9401444875346
85839.84375,-65.9683634105532
85864.2578125,-63.6962938266801
85888.671875,-67.0187842127159
85913.0859375,-65.9983056358749
85937.5,-63.297954077346
85961.9140625,-65.4782449140946
85986.328125,-67.3214150162813
86010.7421875,-60.1786561041851
86035.15625,-61.6807856874121
86059.5703125,-62.9148059355429
86083.984375,-68.5473733811033
86108.3984375,-59.8641927042606
86132.8125,-58.8444681767458
86157.2265625,-69.2488597164913
86181.640625,-69.3882989273795
86206.0546875,-66.2802110469917
86230.46875,-65.7717699183704
86254.8828125,-67.1156847676075
86279.296875,-66.9543761117433
86303.7109375,-65.367132926133
86328.125,-57.6266612466441
86352.5390625,-64.4321275141919
86376.953125,-61.5513271624867
86401.3671875,-59.58251997215
86425.78125,-64.1220551884203
86450.1953125,-66.5450183770063
86474.609375,-74.1662777107336
86499.0234375,-64.8371270518658
86523.4375,-63.8664534812059
86547.8515625,-65.0622369896542
86572.265625,-70.7912024529335
86596.6796875,-72.7115904436123
86621.09375,-71.6479649806365
86645.5078125,-61.1954746057366
86669.921875,-58.8917750847909
86694.3359375,-61.9948357868458
86718.75,-63.4593521597381
86743.1640625,-57.483485092375
86767.578125,-59.8585341573832
86791.9921875,-64.612439770417
86816.40625,-71.4307676537635
86840.8203125,-68.4911342614277
86865.234375,-62.526768174531
86889.6484375,-61.0451484293985
86914.0625,-77.5282556629974
86938.4765625,-64.0747324995653
86962.890625,-64.6792325739354
86987.3046875,-67.5174717656078
87011.71875,-66.9819481658323
87036.1328125,-63.9388853757492
87060.546875,-63.0341695507634
87084.9609375,-65.2115083299661
87109.375,-66.5752917636699
87133.7890625,-73.6438558434328
87158.203125,-71.4345192551463
87182.6171875,-68.1991237442111
87207.03125,-60.8990554289083
87231.4453125,-58.0968420517426
87255.859375,-58.8724610290642
87280.2734375,-59.8354710630709
87304.6875,-60.0324447899301
87329.1015625,-63.2272898951622
87353.515625,-73.5805496111366
87377.9296875,-64.8798678741939
87402.34375,-64.59733554402
87426.7578125,-74.5749136105725
87451.171875,-63.2623935657059
87475.5859375,-68.7940031471589
87500,-67.1920803420392
87524.4140625,-63.8432374304654
87548.828125,-66.2087249144157
87573.2421875,-63.2003745414958
87597.65625,-67.9748305266801
87622.0703125,-62.6543797477956
87646.484375,-63.105314172597
87670.8984375,-65.7260966183767
87695.3125,-68.9381237728265
87719.7265625,-63.3250006223278
87744.140625,-61.4874282858144
87768.5546875,-69.0135073601079
87792.96875,-74.4444812122536
87817.3828125,-63.183329517432
87841.796875,-70.2545546290925
87866.2109375,-67.5916743227941
87890.625,-68.5827824678908
87915.0390625,-66.4405682011647
87939.453125,-64.9260451900176
87963.8671875,-75.6974064049743
87988.28125,-70.6009977072998
88012.6953125,-67.2926472849021
88037.109375,-68.8864628892071
88061.5234375,-69.7055686258884
88085.9375,-58.9265176904191
88110.3515625,-60.6828538749125
88134.765625,-70.5459548911431
88159.1796875,-68.4808345420294
88183.59375,-66.9115311432052
88208.0078125,-70.4308357872046
88232.421875,-67.2210133396728
88256.8359375,-66.9468469898814
88281.25,-63.2677123897254
88305.6640625,-66.7092540979439
88330.078125,-72.4752060647393
88354.4921875,-65.0356185245264
88378.90625,-71.2966273657459
88403.3203125,-74.2470884474759
88427.734375,-70.806424021548
88452.1484375,-79.9245287654406
88476.5625,-65.8268020444264
88500.9765625,-72.9096854178566
88525.390625,-66.0746069647763
88549.8046875,-56.7754075394756
88574.21875,-57.1638643769615
88598.6328125,-65.7431101915618
88623.046875,-68.093765718035
88647.4609375,-58.6476819782603
88671.875,-58.0535083290365
88696.2890625,-59.0548019715112
88720.703125,-73.5262411017689
88745.1171875,-59.651724447753
88769.53125,-59.137571801572
88793.9453125,-62.5755173563762
88818.359375,-68.4794015979328
88842.7734375,-66.0201232487432
88867.1875,-62.7061415714904
88891.6015625,-68.1898850920826
88916.015625,-67.834633750429
88940.4296875,-61.9360351499614
88964.84375,-65.2516551673362
88989.2578125,-74.5650086552925
89013.671875,-77.8751557427788
89038.0859375,-73.0346046074438
89062.5,-67.5844854488892
89086.9140625,-65.8643889075113
89111.328125,-73.321559140255
89135.7421875,-69.8104741929088
89160.15625,-61.3956868850487
89184.5703125,-60.5513664049621
89208.984375,-63.0458484565271
89233.3984375,-62.7253352401992
89257.8125,-65.0245573793599
89282.2265625,-66.0292904585886
89306.640625,-67.8497458692379
89331.0546875,-61.5570107603546
89355.46875,-63.8080473913958
89379.8828125,-69.5463201250023
89404.296875,-79.8513327136023
89428.7109375,-64.6950113402288
89453.125,-60.6079819521861
89477.5390625,-69.3998340326526
89501.953125,-67.5327659391642
89526.3671875,-72.8752527538857
89550.78125,-62.8664261547766
89575.1953125,-67.8500452586331
89599.609375,-65.4783872027634
89624.0234375,-64.4833099273127
89648.4375,-68.87981119812
89672.8515625,-64.4541483503082
89697.265625,-69.2518393256299
89721.6796875,-62.9591401237557
89746.09375,-69.7470539730779
89770.5078125,-86.6901506444398
89794.921875,-75.8171448007949
89819.3359375,-62.3864882232331
89843.75,-60.6745453750748
89868.1640625,-61.335063933099
89892.578125,-62.1576814780195
89916.9921875,-64.938392966925
89941.40625,-66.5257817249127
89965.8203125,-67.2989541607215
89990.234375,-70.0292252616399
90014.6484375,-68.794279120116
90039.0625,-63.6062443769207
90063.4765625,-67.3661386513324
90087.890625,-75.190489712175
90112.3046875,-71.8612692505518
90136.71875,-61.3447400907174
90161.1328125,-59.3744513580135
90185.546875,-58.0649484194808
90209.9609375,-55.7613715090698
90234.375,-56.2871684824845
90258.7890625,-59.133285588807
90283.203125,-62.2706649384454
90307.6171875,-74.3149641621393
90332.03125,-67.1251435740166
90356.4453125,-68.0417262350328
90380.859375,-64.7034089279737
90405.2734375,-65.821619113844
90429.6875,-67.9453265044016
90454.1015625,-72.7918636733685
90478.515625,-64.8099369314696
90502.9296875,-67.6113598063424
90527.34375,-93.9837125547723
90551.7578125,-63.87304804106
90576.171875,-64.300090732543
90600.5859375,-64.7261583955266
90625,-62.3325370979067
90649.4140625,-69.060063811953
90673.828125,-64.7989309023716
90698.2421875,-64.1146026349742
90722.65625,-61.8717151955337
90747.0703125,-65.2537360890579
90771.484375,-64.0195714120829
90795.8984375,-66.5569542594225
90820.3125,-64.2852619080299
90844.7265625,-68.9244588580839
90869.140625,-66.6344127170364
90893.5546875,-58.8269636601659
90917.96875,-59.0563867304011
90942.3828125,-71.7448593993126
90966.796875,-64.8320669353189
90991.2109375,-70.2519890087879
91015.625,-66.7414168956184
91040.0390625,-61.9331320404132
91064.453125,-60.8283778508306
91088.8671875,-69.9770793446224
91113.28125,-77.9302456524553
91137.6953125,-79.3731255725703
91162.109375,-71.0115568754551
91186.5234375,-67.4452428041707
91210.9375,-63.469632314232
91235.3515625,-69.8365499257827
91259.765625,-59.4673881301538
91284.1796875,-58.4523734065024
91308.59375,-61.4716457344051
91333.0078125,-68.8893976313907
91357.421875,-66.0761153621397
91381.8359375,-65.7910943005382
91406.25,-64.1544906086253
91430.6640625,-67.7049295455269
91455.078125,-62.6010099573943
91479.4921875,-66.6952668184651
91503.90625,-65.2129663892519
91528.3203125,-58.3471659167355
91552.734375,-57.8426753048232
91577.1484375,-60.0027219350126
91601.5625,-61.6631292278008
91625.9765625,-68.4256400164441
91650.390625,-75.612309325881
91674.8046875,-65.373336902802
91699.21875,-62.0845745166004
91723.6328125,-67.174641350012
91748.046875,-78.2386446250018
91772.4609375,-67.372361559432
91796.875,-64.4116038131526
91821.2890625,-60.9029795088683
91845.703125,-59.7605625351272
91870.1171875,-63.6429647836977
91894.53125,-62.7974708099151
91918.9453125,-63.1200919181005
91943.359375,-69.4287120521385
91967.7734375,-71.3900900518811
91992.1875,-65.0680179697713
92016.6015625,-63.9686345050205
92041.015625,-63.1931668947176
92065.4296875,-66.6026444128125
92089.84375,-68.6701173799495
92114.2578125,-63.4390282909045
92138.671875,-63.5808846363459
92163.0859375,-66.7481173371769
92187.5,-63.4058517833082
92211.9140625,-59.6724510025926
92236.328125,-61.6949144595091
92260.7421875,-65.1710533441076
92285.15625,-57.7110032321756
92309.5703125,-55.7301973017296
92333.984375,-62.0422919549829
92358.3984375,-69.9245924511305
92382.8125,-70.0662305466511
92407.2265625,-61.9594344763116
92431.640625,-57.2701915512955
92456.0546875,-57.2807802573462
92480.46875,-57.1417506698461
92504.8828125,-59.0571988866278
92529.296875,-62.7203851732895
92553.7109375,-65.4702602805246
92578.125,-63.7929568029067
92602.5390625,-64.9764917703693
92626.953125,-64.2501244173691
92651.3671875,-65.1941417634269
92675.78125,-64.7523797356532
92700.1953125,-62.9202759612364
92724.609375,-63.8062024419686
92749.0234375,-71.6191490501663
92773.4375,-68.0525011157799
92797.8515625,-84.3927517474501
92822.265625,-65.4745374897613
92846.6796875,-60.5396222891953
92871.09375,-60.3871456393097
92895.5078125,-65.836891787191
92919.921875,-68.2215421043041
92944.3359375,-66.3091454964899
92968.75,-64.8348962438174
92993.1640625,-62.870264426111
93017.578125,-62.1290454947234
93041.9921875,-63.3329323612016
93066.40625,-62.3685256117988
93090.8203125,-61.5972737237169
93115.234375,-61.9721900140383
93139.6484375,-67.1060757353372
93164.0625,-69.5892965985535
93188.4765625,-60.8111560285886
93212.890625,-72.7545089651774
93237.3046875,-60.3304726809644
93261.71875,-59.2523442020642
93286.1328125,-60.970273985129
93310.546875,-72.6165179781072
93334.9609375,-71.3039895740588
93359.375,-65.5604419099433
93383.7890625,-62.7703011312431
93408.203125,-63.3222498778718
93432.6171875,-56.8411521143924
93457.03125,-55.1441999011044
93481.4453125,-58.7494447848714
93505.859375,-69.2030755691823
93530.2734375,-67.2791779237992
93554.6875,-65.9205162602244
93579.1015625,-69.7060304642165
93603.515625,-66.3991506875596
93627.9296875,-59.355130766927
93652.34375,-59.1623853723428
93676.7578125,-65.6927867911248
93701.171875,-67.4348224514179
93725.5859375,-64.188871842512
93750,-66.0482497445496
93774.4140625,-65.7521470332725
93798.828125,-62.9343591375541
93823.2421875,-70.8527659126252
93847.65625,-69.8769490757532
93872.0703125,-68.1487859721929
93896.484375,-70.0791307017851
93920.8984375,-65.3101617699494
93945.3125,-59.5364883781937
93969.7265625,-60.1593134298145
93994.140625,-68.1119687823442
94018.5546875,-61.3557753259095
94042.96875,-59.3411506278692
94067.3828125,-61.8067978570583
94091.796875,-58.7456491122223
94116.2109375,-61.3609015659263
94140.625,-67.4686113847736
94165.0390625,-95.870539268403
94189.453125,-68.6475367504574
94213.8671875,-69.4300545662483
94238.28125,-63.4848390781362
94262.6953125,-65.8882944077704
94287.109375,-69.3481683932414
94311.5234375,-70.7706322273122
94335.9375,-74.2095217627441
94360.3515625,-83.4124164093517
94384.765625,-66.2899378092494
94409.1796875,-64.4439418323271
94433.59375,-74.9193125618064
94458.0078125,-85.52932706587
94482.421875,-65.3386446851301
94506.8359375,-58.3948527530056
94531.25,-59.7908119923716
94555.6640625,-65.6736404389022
94580.078125,-74.9191130290867
94604.4921875,-60.941280674103
94628.90625,-57.9637249505903
94653.3203125,-57.1962049869137
94677.734375,-58.3468436767144
94702.1484375,-61.1493754912347
94726.5625,-68.8296071422315
94750.9765625,-67.4770731020989
94775.390625,-56.4559914252407
94799.8046875,-56.5358324431628
94824.21875,-65.4433450492633
94848.6328125,-60.8821163116761
94873.046875,-64.014418765631
94897.4609375,-72.5500322532078
94921.875,-76.5709190289328
94946.2890625,-69.9761594634546
94970.703125,-72.9151694638914
94995.1171875,-71.2759488136834
95019.53125,-88.410884997462
95043.9453125,-70.0976026735857
95068.359375,-75.1009314437533
95092.7734375,-71.2344205354948
95117.1875,-72.3567325856187
95141.6015625,-66.616122013422
95166.015625,-61.2176805253404
95190.4296875,-58.4716605141745
95214.84375,-60.7518965591242
95239.2578125,-66.9821926603478
95263.671875,-62.5239534603472
95288.0859375,-71.3952295601969
95312.5,-62.7374965307038
95336.9140625,-74.7665902478278
95361.328125,-60.9684514952267
95385.7421875,-58.4919802832793
95410.15625,-54.6171034305549
95434.5703125,-57.3510555602521
95458.984375,-60.8116655446386
95483.3984375,-59.7046570889839
95507.8125,-60.3729786799268
95532.2265625,-60.1208032259044
95556.640625,-62.3995915739358
95581.0546875,-73.5093627974949
95605.46875,-66.9356295398757
95629.8828125,-59.3378456146955
95654.296875,-57.8779388177147
95678.7109375,-59.3503916907798
95703.125,-64.3326142557634
95727.5390625,-62.7771730418574
95751.953125,-61.6655963127567
95776.3671875,-76.3759940600069
95800.78125,-64.3833646162637
95825.1953125,-60.0715318177764
95849.609375,-59.2642388865038
95874.0234375,-68.2616545888961
95898.4375,-74.3456889197889
95922.8515625,-62.4010669748277
95947.265625,-60.3054851716163
95971.6796875,-62.5939568785147
95996.09375,-64.8608565743878
96020.5078125,-64.8894454289178
96044.921875,-87.7869743829782
96069.3359375,-62.7223329669275
96093.75,-64.640979427253
96118.1640625,-62.6445388938153
96142.578125,-67.1584949594265
96166.9921875,-62.5730223182463
96191.40625,-62.6328131658704
96215.8203125,-63.1492897191506
96240.234375,-71.9362546262818
96264.6484375,-61.8280217225075
96289.0625,-64.1973961099666
96313.4765625,-62.6295588960273
96337.890625,-70.103738862663
96362.3046875,-61.123136155121
96386.71875,-59.5256999911099
96411.1328125,-65.8929480261118
96435.546875,-62.2237699181732
96459.9609375,-63.3854494872725
96484.375,-60.8532445120828
96508.7890625,-64.3795346657618
96533.203125,-61.3416011704109
96557.6171875,-57.8442923719747
96582.03125,-62.1084922580525
96606.4453125,-64.429348029735
96630.859375,-60.910468651094
96655.2734375,-60.8526593034491
96679.6875,-62.0608027002812
96704.1015625,-89.2280925560103
96728.515625,-65.4497794703468
96752.9296875,-60.0568168603972
96777.34375,-57.9849970720772
96801.7578125,-60.6809119015927
96826.171875,-76.8280899302949
96850.5859375,-62.5583548049402
96875,-62.3995456767851
96899.4140625,-73.4436483589186
96923.828125,-60.2967378882804
96948.2421875,-61.8087287321798
96972.65625,-69.7791628718965
96997.0703125,-68.5222574094304
97021.484375,-73.8772745574766
97045.8984375,-73.2967724502714
97070.3125,-63.0645578487545
97094.7265625,-61.1662079401173
97119.140625,-65.7200800634901
97143.5546875,-61.7240480549649
97167.96875,-60.7758318322282
97192.3828125,-73.2790203316001
97216.796875,-70.5346042834741
97241.2109375,-81.3899512224259
97265.625,-68.1802618382721
97290.0390625,-64.7278355287836
97314.453125,-67.9216167053578
97338.8671875,-70.2997248431224
97363.28125,-77.9706185166319
97387.6953125,-70.0997403544557
97412.109375,-67.6857858641721
97436.5234375,-63.0272499984891
97460.9375,-69.9243265138585
97485.3515625,-85.9206388457283
97509.765625,-82.5890655274982
97534.1796875,-68.1816045848297
97558.59375,-66.4507512184324
97583.0078125,-70.5724678164642
97607.421875,-70.782451435292
97631.8359375,-69.1065962764186
97656.25,-69.0549833553574
97680.6640625,-63.9820972668193
97705.078125,-62.0401956651056
97729.4921875,-62.5241191209543
97753.90625,-61.7260653472502
97778.3203125,-73.4658278756299
97802.734375,-72.9159357601648
97827.1484375,-74.6833358019768
97851.5625,-69.481910231234
97875.9765625,-65.8989358740971
97900.390625,-60.758625974105
97924.8046875,-59.209978875443
97949.21875,-64.6615493945091
97973.6328125,-65.4423388478494
97998.046875,-68.2414934089497
98022.4609375,-72.459977584961
98046.875,-63.3435131928523
98071.2890625,-58.3830255602552
98095.703125,-60.1609135101723
98120.1171875,-69.94451902114
98144.53125,-62.9316458049238
98168.9453125,-70.7804865793518
98193.359375,-64.3465342902184
98217.7734375,-60.2276742412017
98242.1875,-66.4213752371344
98266.6015625,-68.4096549808942
98291.015625,-65.100575748224
98315.4296875,-68.0507464478477
98339.84375,-59.8656450170212
98364.2578125,-61.8363097837625
98388.671875,-71.0340260633199
98413.0859375,-64.8522943343075
98437.5,-64.500712353235
98461.9140625,-63.6305793295427
98486.328125,-60.8296778126338
98510.7421875,-66.9938111855958
98535.15625,-70.1767446518227
98559.5703125,-71.232837608887
98583.984375,-65.1184045158641
98608.3984375,-59.1028314232503
98632.8125,-62.2260173129436
98657.2265625,-66.6757890944807
98681.640625,-68.2307701806086
98706.0546875,-71.5365588326268
98730.46875,-64.0037071857581
98754.8828125,-64.9097253034887
98779.296875,-65.4695386824246
98803.7109375,-66.021693942659
98828.125,-65.8577481563181
98852.5390625,-64.6948290557686
98876.953125,-58.9963139605724
98901.3671875,-68.6761003932104
98925.78125,-63.8930800425344
98950.1953125,-69.8186351227834
98974.609375,-68.3189997087059
98999.0234375,-69.764997044947
99023.4375,-78.1171311100702
99047.8515625,-63.6180021754046
99072.265625,-60.6823526227862
99096.6796875,-65.4949609761275
99121.09375,-66.5782587952968
99145.5078125,-65.7494794562511
99169.921875,-61.5492190197255
99194.3359375,-63.2249185271934
99218.75,-72.7105537693365
99243.1640625,-62.9583931820112
99267.578125,-63.3099586517964
99291.9921875,-73.0504833644859
99316.40625,-74.0765891055023
99340.8203125,-67.7257073738715
99365.234375,-59.545368366235
99389.6484375,-56.1074215897478
99414.0625,-57.6626936017841
99438.4765625,-61.3117216698574
99462.890625,-63.244506089018
99487.3046875,-63.5530403903996
99511.71875,-61.4759893583186
99536.1328125,-59.141899113889
99560.546875,-60.588749933801
99584.9609375,-77.4563176801954
99609.375,-68.1107188627972
99633.7890625,-71.7321557560028
99658.203125,-62.2020240917403
99682.6171875,-59.3880625532107
99707.03125,-66.1669868391025
99731.4453125,-68.5094902188237
99755.859375,-62.8673527507823
99780.2734375,-76.3578664160414
99804.6875,-76.5993582087292
99829.1015625,-71.0088322859383
99853.515625,-59.9147604979575
99877.9296875,-60.5733176669157
99902.34375,-68.0508540675638
99926.7578125,-66.268511536315
99951.171875,-61.1229834331731
99975.5859375,-59.2205265293802
100000,-81.2800590768396
